,t,strain*1e+21
0,-0.8151,-0.1847
1,-0.8148,-0.1833
2,-0.8146,-0.1816
3,-0.8143,-0.1799
4,-0.8141,-0.1779
5,-0.8139,-0.1758
6,-0.8136,-0.1735
7,-0.8134,-0.1711
8,-0.8131,-0.1685
9,-0.8129,-0.1657
10,-0.8126,-0.1628
11,-0.8124,-0.1597
12,-0.8121,-0.1565
13,-0.8119,-0.1531
14,-0.8117,-0.1496
15,-0.8114,-0.1459
16,-0.8112,-0.1421
17,-0.8109,-0.1381
18,-0.8107,-0.1341
19,-0.8104,-0.1299
20,-0.8102,-0.1255
21,-0.8099,-0.1211
22,-0.8097,-0.1165
23,-0.8095,-0.1119
24,-0.8092,-0.1071
25,-0.8090,-0.1022
26,-0.8087,-0.0972
27,-0.8085,-0.0922
28,-0.8082,-0.0870
29,-0.8080,-0.0818
30,-0.8078,-0.0764
31,-0.8075,-0.0710
32,-0.8073,-0.0656
33,-0.8070,-0.0601
34,-0.8068,-0.0545
35,-0.8065,-0.0488
36,-0.8063,-0.0431
37,-0.8060,-0.0374
38,-0.8058,-0.0317
39,-0.8056,-0.0259
40,-0.8053,-0.0200
41,-0.8051,-0.0142
42,-0.8048,-0.0083
43,-0.8046,-0.0025
44,-0.8043,0.0034
45,-0.8041,0.0093
46,-0.8038,0.0151
47,-0.8036,0.0210
48,-0.8034,0.0268
49,-0.8031,0.0326
50,-0.8029,0.0384
51,-0.8026,0.0441
52,-0.8024,0.0498
53,-0.8021,0.0555
54,-0.8019,0.0611
55,-0.8016,0.0666
56,-0.8014,0.0721
57,-0.8012,0.0775
58,-0.8009,0.0829
59,-0.8007,0.0881
60,-0.8004,0.0933
61,-0.8002,0.0984
62,-0.7999,0.1034
63,-0.7997,0.1083
64,-0.7994,0.1131
65,-0.7992,0.1178
66,-0.7990,0.1224
67,-0.7987,0.1269
68,-0.7985,0.1312
69,-0.7982,0.1354
70,-0.7980,0.1395
71,-0.7977,0.1435
72,-0.7975,0.1473
73,-0.7973,0.1510
74,-0.7970,0.1546
75,-0.7968,0.1579
76,-0.7965,0.1612
77,-0.7963,0.1643
78,-0.7960,0.1672
79,-0.7958,0.1700
80,-0.7955,0.1726
81,-0.7953,0.1751
82,-0.7951,0.1773
83,-0.7948,0.1795
84,-0.7946,0.1814
85,-0.7943,0.1832
86,-0.7941,0.1848
87,-0.7938,0.1862
88,-0.7936,0.1874
89,-0.7933,0.1885
90,-0.7931,0.1894
91,-0.7929,0.1901
92,-0.7926,0.1906
93,-0.7924,0.1909
94,-0.7921,0.1911
95,-0.7919,0.1910
96,-0.7916,0.1908
97,-0.7914,0.1904
98,-0.7911,0.1898
99,-0.7909,0.1891
100,-0.7907,0.1881
101,-0.7904,0.1870
102,-0.7902,0.1857
103,-0.7899,0.1842
104,-0.7897,0.1825
105,-0.7894,0.1807
106,-0.7892,0.1787
107,-0.7890,0.1765
108,-0.7887,0.1741
109,-0.7885,0.1716
110,-0.7882,0.1689
111,-0.7880,0.1661
112,-0.7877,0.1631
113,-0.7875,0.1599
114,-0.7872,0.1566
115,-0.7870,0.1531
116,-0.7868,0.1495
117,-0.7865,0.1457
118,-0.7863,0.1418
119,-0.7860,0.1377
120,-0.7858,0.1335
121,-0.7855,0.1292
122,-0.7853,0.1248
123,-0.7850,0.1202
124,-0.7848,0.1155
125,-0.7846,0.1107
126,-0.7843,0.1058
127,-0.7841,0.1008
128,-0.7838,0.0957
129,-0.7836,0.0906
130,-0.7833,0.0853
131,-0.7831,0.0799
132,-0.7828,0.0745
133,-0.7826,0.0689
134,-0.7824,0.0633
135,-0.7821,0.0577
136,-0.7819,0.0520
137,-0.7816,0.0462
138,-0.7814,0.0404
139,-0.7811,0.0346
140,-0.7809,0.0287
141,-0.7807,0.0228
142,-0.7804,0.0169
143,-0.7802,0.0109
144,-0.7799,0.0050
145,-0.7797,-0.0010
146,-0.7794,-0.0070
147,-0.7792,-0.0129
148,-0.7789,-0.0189
149,-0.7787,-0.0248
150,-0.7785,-0.0307
151,-0.7782,-0.0366
152,-0.7780,-0.0425
153,-0.7777,-0.0483
154,-0.7775,-0.0540
155,-0.7772,-0.0598
156,-0.7770,-0.0654
157,-0.7767,-0.0710
158,-0.7765,-0.0765
159,-0.7763,-0.0820
160,-0.7760,-0.0874
161,-0.7758,-0.0926
162,-0.7755,-0.0979
163,-0.7753,-0.1030
164,-0.7750,-0.1080
165,-0.7748,-0.1129
166,-0.7745,-0.1177
167,-0.7743,-0.1224
168,-0.7741,-0.1269
169,-0.7738,-0.1314
170,-0.7736,-0.1357
171,-0.7733,-0.1399
172,-0.7731,-0.1439
173,-0.7728,-0.1478
174,-0.7726,-0.1516
175,-0.7724,-0.1552
176,-0.7721,-0.1587
177,-0.7719,-0.1620
178,-0.7716,-0.1651
179,-0.7714,-0.1681
180,-0.7711,-0.1710
181,-0.7709,-0.1736
182,-0.7706,-0.1761
183,-0.7704,-0.1785
184,-0.7702,-0.1806
185,-0.7699,-0.1826
186,-0.7697,-0.1844
187,-0.7694,-0.1860
188,-0.7692,-0.1875
189,-0.7689,-0.1887
190,-0.7687,-0.1898
191,-0.7684,-0.1907
192,-0.7682,-0.1914
193,-0.7680,-0.1919
194,-0.7677,-0.1922
195,-0.7675,-0.1923
196,-0.7672,-0.1923
197,-0.7670,-0.1920
198,-0.7667,-0.1916
199,-0.7665,-0.1910
200,-0.7662,-0.1902
201,-0.7660,-0.1892
202,-0.7658,-0.1880
203,-0.7655,-0.1867
204,-0.7653,-0.1851
205,-0.7650,-0.1834
206,-0.7648,-0.1815
207,-0.7645,-0.1794
208,-0.7643,-0.1771
209,-0.7640,-0.1747
210,-0.7638,-0.1721
211,-0.7636,-0.1693
212,-0.7633,-0.1664
213,-0.7631,-0.1633
214,-0.7628,-0.1600
215,-0.7626,-0.1566
216,-0.7623,-0.1530
217,-0.7621,-0.1492
218,-0.7619,-0.1454
219,-0.7616,-0.1413
220,-0.7614,-0.1372
221,-0.7611,-0.1329
222,-0.7609,-0.1284
223,-0.7606,-0.1239
224,-0.7604,-0.1192
225,-0.7601,-0.1144
226,-0.7599,-0.1095
227,-0.7597,-0.1044
228,-0.7594,-0.0993
229,-0.7592,-0.0941
230,-0.7589,-0.0887
231,-0.7587,-0.0833
232,-0.7584,-0.0778
233,-0.7582,-0.0723
234,-0.7579,-0.0666
235,-0.7577,-0.0609
236,-0.7575,-0.0551
237,-0.7572,-0.0493
238,-0.7570,-0.0434
239,-0.7567,-0.0375
240,-0.7565,-0.0315
241,-0.7562,-0.0255
242,-0.7560,-0.0195
243,-0.7557,-0.0135
244,-0.7555,-0.0074
245,-0.7553,-0.0013
246,-0.7550,0.0047
247,-0.7548,0.0108
248,-0.7545,0.0169
249,-0.7543,0.0229
250,-0.7540,0.0289
251,-0.7538,0.0349
252,-0.7536,0.0409
253,-0.7533,0.0468
254,-0.7531,0.0527
255,-0.7528,0.0585
256,-0.7526,0.0643
257,-0.7523,0.0700
258,-0.7521,0.0756
259,-0.7518,0.0812
260,-0.7516,0.0867
261,-0.7514,0.0921
262,-0.7511,0.0974
263,-0.7509,0.1026
264,-0.7506,0.1077
265,-0.7504,0.1127
266,-0.7501,0.1176
267,-0.7499,0.1224
268,-0.7496,0.1271
269,-0.7494,0.1316
270,-0.7492,0.1360
271,-0.7489,0.1403
272,-0.7487,0.1444
273,-0.7484,0.1484
274,-0.7482,0.1523
275,-0.7479,0.1560
276,-0.7477,0.1595
277,-0.7474,0.1629
278,-0.7472,0.1661
279,-0.7470,0.1692
280,-0.7467,0.1721
281,-0.7465,0.1748
282,-0.7462,0.1773
283,-0.7460,0.1797
284,-0.7457,0.1819
285,-0.7455,0.1839
286,-0.7453,0.1857
287,-0.7450,0.1874
288,-0.7448,0.1888
289,-0.7445,0.1901
290,-0.7443,0.1911
291,-0.7440,0.1920
292,-0.7438,0.1927
293,-0.7435,0.1932
294,-0.7433,0.1935
295,-0.7431,0.1937
296,-0.7428,0.1936
297,-0.7426,0.1933
298,-0.7423,0.1928
299,-0.7421,0.1922
300,-0.7418,0.1913
301,-0.7416,0.1903
302,-0.7413,0.1890
303,-0.7411,0.1876
304,-0.7409,0.1860
305,-0.7406,0.1842
306,-0.7404,0.1822
307,-0.7401,0.1801
308,-0.7399,0.1777
309,-0.7396,0.1752
310,-0.7394,0.1725
311,-0.7391,0.1696
312,-0.7389,0.1666
313,-0.7387,0.1633
314,-0.7384,0.1600
315,-0.7382,0.1564
316,-0.7379,0.1527
317,-0.7377,0.1489
318,-0.7374,0.1449
319,-0.7372,0.1407
320,-0.7369,0.1364
321,-0.7367,0.1320
322,-0.7365,0.1274
323,-0.7362,0.1227
324,-0.7360,0.1179
325,-0.7357,0.1130
326,-0.7355,0.1079
327,-0.7352,0.1027
328,-0.7350,0.0975
329,-0.7348,0.0921
330,-0.7345,0.0866
331,-0.7343,0.0811
332,-0.7340,0.0755
333,-0.7338,0.0697
334,-0.7335,0.0640
335,-0.7333,0.0581
336,-0.7330,0.0522
337,-0.7328,0.0462
338,-0.7326,0.0402
339,-0.7323,0.0342
340,-0.7321,0.0281
341,-0.7318,0.0219
342,-0.7316,0.0158
343,-0.7313,0.0096
344,-0.7311,0.0035
345,-0.7308,-0.0027
346,-0.7306,-0.0089
347,-0.7304,-0.0151
348,-0.7301,-0.0212
349,-0.7299,-0.0273
350,-0.7296,-0.0335
351,-0.7294,-0.0395
352,-0.7291,-0.0456
353,-0.7289,-0.0516
354,-0.7286,-0.0575
355,-0.7284,-0.0634
356,-0.7282,-0.0692
357,-0.7279,-0.0750
358,-0.7277,-0.0807
359,-0.7274,-0.0863
360,-0.7272,-0.0918
361,-0.7269,-0.0972
362,-0.7267,-0.1025
363,-0.7265,-0.1078
364,-0.7262,-0.1129
365,-0.7260,-0.1179
366,-0.7257,-0.1228
367,-0.7255,-0.1275
368,-0.7252,-0.1322
369,-0.7250,-0.1367
370,-0.7247,-0.1410
371,-0.7245,-0.1452
372,-0.7243,-0.1493
373,-0.7240,-0.1532
374,-0.7238,-0.1570
375,-0.7235,-0.1606
376,-0.7233,-0.1640
377,-0.7230,-0.1673
378,-0.7228,-0.1704
379,-0.7225,-0.1734
380,-0.7223,-0.1761
381,-0.7221,-0.1787
382,-0.7218,-0.1811
383,-0.7216,-0.1833
384,-0.7213,-0.1854
385,-0.7211,-0.1872
386,-0.7208,-0.1889
387,-0.7206,-0.1903
388,-0.7203,-0.1916
389,-0.7201,-0.1927
390,-0.7199,-0.1935
391,-0.7196,-0.1942
392,-0.7194,-0.1947
393,-0.7191,-0.1950
394,-0.7189,-0.1950
395,-0.7186,-0.1949
396,-0.7184,-0.1946
397,-0.7182,-0.1941
398,-0.7179,-0.1934
399,-0.7177,-0.1925
400,-0.7174,-0.1913
401,-0.7172,-0.1900
402,-0.7169,-0.1885
403,-0.7167,-0.1868
404,-0.7164,-0.1850
405,-0.7162,-0.1829
406,-0.7160,-0.1806
407,-0.7157,-0.1782
408,-0.7155,-0.1755
409,-0.7152,-0.1727
410,-0.7150,-0.1697
411,-0.7147,-0.1665
412,-0.7145,-0.1632
413,-0.7142,-0.1597
414,-0.7140,-0.1560
415,-0.7138,-0.1522
416,-0.7135,-0.1482
417,-0.7133,-0.1441
418,-0.7130,-0.1398
419,-0.7128,-0.1353
420,-0.7125,-0.1307
421,-0.7123,-0.1260
422,-0.7120,-0.1212
423,-0.7118,-0.1162
424,-0.7116,-0.1111
425,-0.7113,-0.1059
426,-0.7111,-0.1006
427,-0.7108,-0.0952
428,-0.7106,-0.0896
429,-0.7103,-0.0840
430,-0.7101,-0.0783
431,-0.7099,-0.0725
432,-0.7096,-0.0667
433,-0.7094,-0.0607
434,-0.7091,-0.0547
435,-0.7089,-0.0487
436,-0.7086,-0.0426
437,-0.7084,-0.0364
438,-0.7081,-0.0302
439,-0.7079,-0.0240
440,-0.7077,-0.0178
441,-0.7074,-0.0115
442,-0.7072,-0.0052
443,-0.7069,0.0011
444,-0.7067,0.0074
445,-0.7064,0.0137
446,-0.7062,0.0199
447,-0.7059,0.0262
448,-0.7057,0.0324
449,-0.7055,0.0386
450,-0.7052,0.0448
451,-0.7050,0.0509
452,-0.7047,0.0570
453,-0.7045,0.0630
454,-0.7042,0.0689
455,-0.7040,0.0748
456,-0.7037,0.0806
457,-0.7035,0.0863
458,-0.7033,0.0919
459,-0.7030,0.0975
460,-0.7028,0.1029
461,-0.7025,0.1082
462,-0.7023,0.1134
463,-0.7020,0.1185
464,-0.7018,0.1235
465,-0.7015,0.1284
466,-0.7013,0.1331
467,-0.7011,0.1377
468,-0.7008,0.1421
469,-0.7006,0.1464
470,-0.7003,0.1506
471,-0.7001,0.1545
472,-0.6998,0.1584
473,-0.6996,0.1620
474,-0.6994,0.1655
475,-0.6991,0.1689
476,-0.6989,0.1720
477,-0.6986,0.1750
478,-0.6984,0.1778
479,-0.6981,0.1804
480,-0.6979,0.1828
481,-0.6976,0.1850
482,-0.6974,0.1871
483,-0.6972,0.1889
484,-0.6969,0.1906
485,-0.6967,0.1920
486,-0.6964,0.1932
487,-0.6962,0.1943
488,-0.6959,0.1951
489,-0.6957,0.1958
490,-0.6954,0.1962
491,-0.6952,0.1964
492,-0.6950,0.1965
493,-0.6947,0.1963
494,-0.6945,0.1959
495,-0.6942,0.1953
496,-0.6940,0.1945
497,-0.6937,0.1935
498,-0.6935,0.1923
499,-0.6932,0.1909
500,-0.6930,0.1893
501,-0.6928,0.1875
502,-0.6925,0.1855
503,-0.6923,0.1833
504,-0.6920,0.1809
505,-0.6918,0.1783
506,-0.6915,0.1756
507,-0.6913,0.1726
508,-0.6911,0.1695
509,-0.6908,0.1662
510,-0.6906,0.1627
511,-0.6903,0.1590
512,-0.6901,0.1552
513,-0.6898,0.1512
514,-0.6896,0.1471
515,-0.6893,0.1428
516,-0.6891,0.1383
517,-0.6889,0.1337
518,-0.6886,0.1290
519,-0.6884,0.1241
520,-0.6881,0.1191
521,-0.6879,0.1139
522,-0.6876,0.1087
523,-0.6874,0.1033
524,-0.6871,0.0978
525,-0.6869,0.0922
526,-0.6867,0.0865
527,-0.6864,0.0807
528,-0.6862,0.0749
529,-0.6859,0.0689
530,-0.6857,0.0629
531,-0.6854,0.0568
532,-0.6852,0.0507
533,-0.6849,0.0444
534,-0.6847,0.0382
535,-0.6845,0.0319
536,-0.6842,0.0255
537,-0.6840,0.0192
538,-0.6837,0.0128
539,-0.6835,0.0064
540,-0.6832,-0.0000
541,-0.6830,-0.0064
542,-0.6828,-0.0128
543,-0.6825,-0.0192
544,-0.6823,-0.0256
545,-0.6820,-0.0320
546,-0.6818,-0.0383
547,-0.6815,-0.0445
548,-0.6813,-0.0508
549,-0.6810,-0.0570
550,-0.6808,-0.0631
551,-0.6806,-0.0691
552,-0.6803,-0.0751
553,-0.6801,-0.0810
554,-0.6798,-0.0869
555,-0.6796,-0.0926
556,-0.6793,-0.0982
557,-0.6791,-0.1038
558,-0.6788,-0.1092
559,-0.6786,-0.1145
560,-0.6784,-0.1197
561,-0.6781,-0.1248
562,-0.6779,-0.1297
563,-0.6776,-0.1345
564,-0.6774,-0.1392
565,-0.6771,-0.1437
566,-0.6769,-0.1480
567,-0.6766,-0.1522
568,-0.6764,-0.1563
569,-0.6762,-0.1601
570,-0.6759,-0.1638
571,-0.6757,-0.1674
572,-0.6754,-0.1707
573,-0.6752,-0.1739
574,-0.6749,-0.1769
575,-0.6747,-0.1797
576,-0.6744,-0.1823
577,-0.6742,-0.1847
578,-0.6740,-0.1869
579,-0.6737,-0.1890
580,-0.6735,-0.1908
581,-0.6732,-0.1924
582,-0.6730,-0.1938
583,-0.6727,-0.1950
584,-0.6725,-0.1960
585,-0.6723,-0.1968
586,-0.6720,-0.1974
587,-0.6718,-0.1978
588,-0.6715,-0.1979
589,-0.6713,-0.1979
590,-0.6710,-0.1976
591,-0.6708,-0.1971
592,-0.6705,-0.1964
593,-0.6703,-0.1955
594,-0.6701,-0.1944
595,-0.6698,-0.1931
596,-0.6696,-0.1916
597,-0.6693,-0.1899
598,-0.6691,-0.1879
599,-0.6688,-0.1858
600,-0.6686,-0.1835
601,-0.6683,-0.1809
602,-0.6681,-0.1782
603,-0.6679,-0.1753
604,-0.6676,-0.1722
605,-0.6674,-0.1689
606,-0.6671,-0.1654
607,-0.6669,-0.1618
608,-0.6666,-0.1579
609,-0.6664,-0.1539
610,-0.6661,-0.1498
611,-0.6659,-0.1454
612,-0.6657,-0.1410
613,-0.6654,-0.1363
614,-0.6652,-0.1315
615,-0.6649,-0.1266
616,-0.6647,-0.1215
617,-0.6644,-0.1163
618,-0.6642,-0.1110
619,-0.6640,-0.1056
620,-0.6637,-0.1000
621,-0.6635,-0.0943
622,-0.6632,-0.0886
623,-0.6630,-0.0827
624,-0.6627,-0.0767
625,-0.6625,-0.0707
626,-0.6622,-0.0646
627,-0.6620,-0.0584
628,-0.6618,-0.0521
629,-0.6615,-0.0458
630,-0.6613,-0.0394
631,-0.6610,-0.0330
632,-0.6608,-0.0266
633,-0.6605,-0.0201
634,-0.6603,-0.0136
635,-0.6600,-0.0071
636,-0.6598,-0.0005
637,-0.6596,0.0060
638,-0.6593,0.0125
639,-0.6591,0.0190
640,-0.6588,0.0255
641,-0.6586,0.0320
642,-0.6583,0.0384
643,-0.6581,0.0448
644,-0.6578,0.0512
645,-0.6576,0.0575
646,-0.6574,0.0637
647,-0.6571,0.0699
648,-0.6569,0.0760
649,-0.6566,0.0820
650,-0.6564,0.0879
651,-0.6561,0.0938
652,-0.6559,0.0995
653,-0.6557,0.1051
654,-0.6554,0.1106
655,-0.6552,0.1160
656,-0.6549,0.1213
657,-0.6547,0.1265
658,-0.6544,0.1315
659,-0.6542,0.1363
660,-0.6539,0.1410
661,-0.6537,0.1456
662,-0.6535,0.1500
663,-0.6532,0.1543
664,-0.6530,0.1583
665,-0.6527,0.1622
666,-0.6525,0.1660
667,-0.6522,0.1695
668,-0.6520,0.1729
669,-0.6517,0.1761
670,-0.6515,0.1791
671,-0.6513,0.1819
672,-0.6510,0.1845
673,-0.6508,0.1869
674,-0.6505,0.1891
675,-0.6503,0.1911
676,-0.6500,0.1928
677,-0.6498,0.1944
678,-0.6495,0.1958
679,-0.6493,0.1969
680,-0.6491,0.1978
681,-0.6488,0.1986
682,-0.6486,0.1991
683,-0.6483,0.1993
684,-0.6481,0.1994
685,-0.6478,0.1992
686,-0.6476,0.1989
687,-0.6474,0.1983
688,-0.6471,0.1975
689,-0.6469,0.1965
690,-0.6466,0.1952
691,-0.6464,0.1938
692,-0.6461,0.1921
693,-0.6459,0.1902
694,-0.6456,0.1881
695,-0.6454,0.1858
696,-0.6452,0.1833
697,-0.6449,0.1806
698,-0.6447,0.1777
699,-0.6444,0.1747
700,-0.6442,0.1714
701,-0.6439,0.1679
702,-0.6437,0.1642
703,-0.6434,0.1604
704,-0.6432,0.1564
705,-0.6430,0.1522
706,-0.6427,0.1478
707,-0.6425,0.1433
708,-0.6422,0.1386
709,-0.6420,0.1338
710,-0.6417,0.1288
711,-0.6415,0.1237
712,-0.6412,0.1184
713,-0.6410,0.1130
714,-0.6408,0.1075
715,-0.6405,0.1018
716,-0.6403,0.0961
717,-0.6400,0.0902
718,-0.6398,0.0842
719,-0.6395,0.0782
720,-0.6393,0.0720
721,-0.6390,0.0658
722,-0.6388,0.0595
723,-0.6386,0.0531
724,-0.6383,0.0467
725,-0.6381,0.0402
726,-0.6378,0.0337
727,-0.6376,0.0271
728,-0.6373,0.0205
729,-0.6371,0.0139
730,-0.6369,0.0072
731,-0.6366,0.0006
732,-0.6364,-0.0061
733,-0.6361,-0.0127
734,-0.6359,-0.0194
735,-0.6356,-0.0260
736,-0.6354,-0.0326
737,-0.6351,-0.0391
738,-0.6349,-0.0457
739,-0.6347,-0.0521
740,-0.6344,-0.0585
741,-0.6342,-0.0649
742,-0.6339,-0.0712
743,-0.6337,-0.0774
744,-0.6334,-0.0835
745,-0.6332,-0.0895
746,-0.6329,-0.0954
747,-0.6327,-0.1013
748,-0.6325,-0.1070
749,-0.6322,-0.1126
750,-0.6320,-0.1181
751,-0.6317,-0.1234
752,-0.6315,-0.1286
753,-0.6312,-0.1337
754,-0.6310,-0.1386
755,-0.6307,-0.1434
756,-0.6305,-0.1480
757,-0.6303,-0.1524
758,-0.6300,-0.1567
759,-0.6298,-0.1608
760,-0.6295,-0.1647
761,-0.6293,-0.1685
762,-0.6290,-0.1720
763,-0.6288,-0.1754
764,-0.6286,-0.1786
765,-0.6283,-0.1815
766,-0.6281,-0.1843
767,-0.6278,-0.1869
768,-0.6276,-0.1892
769,-0.6273,-0.1914
770,-0.6271,-0.1933
771,-0.6268,-0.1950
772,-0.6266,-0.1965
773,-0.6264,-0.1978
774,-0.6261,-0.1989
775,-0.6259,-0.1997
776,-0.6256,-0.2003
777,-0.6254,-0.2007
778,-0.6251,-0.2009
779,-0.6249,-0.2009
780,-0.6246,-0.2006
781,-0.6244,-0.2001
782,-0.6242,-0.1993
783,-0.6239,-0.1984
784,-0.6237,-0.1972
785,-0.6234,-0.1958
786,-0.6232,-0.1942
787,-0.6229,-0.1924
788,-0.6227,-0.1903
789,-0.6224,-0.1880
790,-0.6222,-0.1856
791,-0.6220,-0.1829
792,-0.6217,-0.1800
793,-0.6215,-0.1769
794,-0.6212,-0.1736
795,-0.6210,-0.1701
796,-0.6207,-0.1664
797,-0.6205,-0.1626
798,-0.6203,-0.1585
799,-0.6200,-0.1543
800,-0.6198,-0.1499
801,-0.6195,-0.1453
802,-0.6193,-0.1405
803,-0.6190,-0.1356
804,-0.6188,-0.1306
805,-0.6185,-0.1254
806,-0.6183,-0.1200
807,-0.6181,-0.1145
808,-0.6178,-0.1089
809,-0.6176,-0.1032
810,-0.6173,-0.0973
811,-0.6171,-0.0913
812,-0.6168,-0.0853
813,-0.6166,-0.0791
814,-0.6163,-0.0728
815,-0.6161,-0.0665
816,-0.6159,-0.0601
817,-0.6156,-0.0536
818,-0.6154,-0.0470
819,-0.6151,-0.0404
820,-0.6149,-0.0337
821,-0.6146,-0.0270
822,-0.6144,-0.0203
823,-0.6141,-0.0135
824,-0.6139,-0.0068
825,-0.6137,0.0000
826,-0.6134,0.0068
827,-0.6132,0.0136
828,-0.6129,0.0204
829,-0.6127,0.0271
830,-0.6124,0.0338
831,-0.6122,0.0405
832,-0.6119,0.0472
833,-0.6117,0.0537
834,-0.6115,0.0603
835,-0.6112,0.0667
836,-0.6110,0.0731
837,-0.6107,0.0794
838,-0.6105,0.0856
839,-0.6102,0.0918
840,-0.6100,0.0978
841,-0.6098,0.1037
842,-0.6095,0.1095
843,-0.6093,0.1152
844,-0.6090,0.1207
845,-0.6088,0.1261
846,-0.6085,0.1314
847,-0.6083,0.1365
848,-0.6080,0.1415
849,-0.6078,0.1463
850,-0.6076,0.1509
851,-0.6073,0.1554
852,-0.6071,0.1597
853,-0.6068,0.1638
854,-0.6066,0.1677
855,-0.6063,0.1714
856,-0.6061,0.1750
857,-0.6058,0.1783
858,-0.6056,0.1814
859,-0.6054,0.1844
860,-0.6051,0.1871
861,-0.6049,0.1896
862,-0.6046,0.1919
863,-0.6044,0.1940
864,-0.6041,0.1958
865,-0.6039,0.1975
866,-0.6036,0.1989
867,-0.6034,0.2001
868,-0.6032,0.2010
869,-0.6029,0.2017
870,-0.6027,0.2022
871,-0.6024,0.2025
872,-0.6022,0.2025
873,-0.6019,0.2023
874,-0.6017,0.2018
875,-0.6015,0.2012
876,-0.6012,0.2003
877,-0.6010,0.1991
878,-0.6007,0.1978
879,-0.6005,0.1962
880,-0.6002,0.1944
881,-0.6000,0.1923
882,-0.5997,0.1901
883,-0.5995,0.1876
884,-0.5993,0.1849
885,-0.5990,0.1820
886,-0.5988,0.1789
887,-0.5985,0.1755
888,-0.5983,0.1720
889,-0.5980,0.1683
890,-0.5978,0.1644
891,-0.5975,0.1602
892,-0.5973,0.1559
893,-0.5971,0.1515
894,-0.5968,0.1468
895,-0.5966,0.1420
896,-0.5963,0.1370
897,-0.5961,0.1318
898,-0.5958,0.1265
899,-0.5956,0.1211
900,-0.5953,0.1155
901,-0.5951,0.1097
902,-0.5949,0.1039
903,-0.5946,0.0979
904,-0.5944,0.0918
905,-0.5941,0.0856
906,-0.5939,0.0793
907,-0.5936,0.0729
908,-0.5934,0.0664
909,-0.5932,0.0598
910,-0.5929,0.0532
911,-0.5927,0.0465
912,-0.5924,0.0398
913,-0.5922,0.0330
914,-0.5919,0.0261
915,-0.5917,0.0192
916,-0.5914,0.0123
917,-0.5912,0.0054
918,-0.5910,-0.0015
919,-0.5907,-0.0084
920,-0.5905,-0.0154
921,-0.5902,-0.0223
922,-0.5900,-0.0291
923,-0.5897,-0.0360
924,-0.5895,-0.0428
925,-0.5892,-0.0496
926,-0.5890,-0.0563
927,-0.5888,-0.0629
928,-0.5885,-0.0695
929,-0.5883,-0.0760
930,-0.5880,-0.0824
931,-0.5878,-0.0887
932,-0.5875,-0.0949
933,-0.5873,-0.1010
934,-0.5870,-0.1070
935,-0.5868,-0.1128
936,-0.5866,-0.1186
937,-0.5863,-0.1242
938,-0.5861,-0.1296
939,-0.5858,-0.1349
940,-0.5856,-0.1401
941,-0.5853,-0.1451
942,-0.5851,-0.1499
943,-0.5849,-0.1545
944,-0.5846,-0.1590
945,-0.5844,-0.1633
946,-0.5841,-0.1674
947,-0.5839,-0.1713
948,-0.5836,-0.1750
949,-0.5834,-0.1785
950,-0.5831,-0.1817
951,-0.5829,-0.1848
952,-0.5827,-0.1877
953,-0.5824,-0.1903
954,-0.5822,-0.1927
955,-0.5819,-0.1949
956,-0.5817,-0.1969
957,-0.5814,-0.1986
958,-0.5812,-0.2001
959,-0.5809,-0.2014
960,-0.5807,-0.2024
961,-0.5805,-0.2032
962,-0.5802,-0.2038
963,-0.5800,-0.2041
964,-0.5797,-0.2042
965,-0.5795,-0.2040
966,-0.5792,-0.2036
967,-0.5790,-0.2030
968,-0.5787,-0.2021
969,-0.5785,-0.2010
970,-0.5783,-0.1996
971,-0.5780,-0.1980
972,-0.5778,-0.1962
973,-0.5775,-0.1941
974,-0.5773,-0.1918
975,-0.5770,-0.1893
976,-0.5768,-0.1866
977,-0.5765,-0.1836
978,-0.5763,-0.1805
979,-0.5761,-0.1771
980,-0.5758,-0.1735
981,-0.5756,-0.1697
982,-0.5753,-0.1657
983,-0.5751,-0.1614
984,-0.5748,-0.1571
985,-0.5746,-0.1525
986,-0.5744,-0.1477
987,-0.5741,-0.1428
988,-0.5739,-0.1376
989,-0.5736,-0.1324
990,-0.5734,-0.1269
991,-0.5731,-0.1213
992,-0.5729,-0.1156
993,-0.5726,-0.1097
994,-0.5724,-0.1037
995,-0.5722,-0.0976
996,-0.5719,-0.0914
997,-0.5717,-0.0850
998,-0.5714,-0.0785
999,-0.5712,-0.0720
1000,-0.5709,-0.0654
1001,-0.5707,-0.0586
1002,-0.5704,-0.0518
1003,-0.5702,-0.0450
1004,-0.5700,-0.0381
1005,-0.5697,-0.0311
1006,-0.5695,-0.0241
1007,-0.5692,-0.0171
1008,-0.5690,-0.0100
1009,-0.5687,-0.0029
1010,-0.5685,0.0041
1011,-0.5682,0.0112
1012,-0.5680,0.0183
1013,-0.5678,0.0253
1014,-0.5675,0.0323
1015,-0.5673,0.0393
1016,-0.5670,0.0462
1017,-0.5668,0.0531
1018,-0.5665,0.0599
1019,-0.5663,0.0667
1020,-0.5661,0.0733
1021,-0.5658,0.0799
1022,-0.5656,0.0864
1023,-0.5653,0.0928
1024,-0.5651,0.0991
1025,-0.5648,0.1053
1026,-0.5646,0.1113
1027,-0.5643,0.1172
1028,-0.5641,0.1230
1029,-0.5639,0.1286
1030,-0.5636,0.1341
1031,-0.5634,0.1394
1032,-0.5631,0.1446
1033,-0.5629,0.1495
1034,-0.5626,0.1543
1035,-0.5624,0.1590
1036,-0.5621,0.1634
1037,-0.5619,0.1676
1038,-0.5617,0.1717
1039,-0.5614,0.1755
1040,-0.5612,0.1791
1041,-0.5609,0.1825
1042,-0.5607,0.1857
1043,-0.5604,0.1887
1044,-0.5602,0.1914
1045,-0.5599,0.1939
1046,-0.5597,0.1962
1047,-0.5595,0.1983
1048,-0.5592,0.2001
1049,-0.5590,0.2016
1050,-0.5587,0.2030
1051,-0.5585,0.2040
1052,-0.5582,0.2049
1053,-0.5580,0.2055
1054,-0.5578,0.2058
1055,-0.5575,0.2059
1056,-0.5573,0.2057
1057,-0.5570,0.2053
1058,-0.5568,0.2047
1059,-0.5565,0.2038
1060,-0.5563,0.2026
1061,-0.5560,0.2013
1062,-0.5558,0.1996
1063,-0.5556,0.1977
1064,-0.5553,0.1956
1065,-0.5551,0.1933
1066,-0.5548,0.1907
1067,-0.5546,0.1879
1068,-0.5543,0.1848
1069,-0.5541,0.1816
1070,-0.5538,0.1781
1071,-0.5536,0.1744
1072,-0.5534,0.1704
1073,-0.5531,0.1663
1074,-0.5529,0.1620
1075,-0.5526,0.1575
1076,-0.5524,0.1527
1077,-0.5521,0.1478
1078,-0.5519,0.1427
1079,-0.5516,0.1375
1080,-0.5514,0.1320
1081,-0.5512,0.1264
1082,-0.5509,0.1207
1083,-0.5507,0.1148
1084,-0.5504,0.1088
1085,-0.5502,0.1026
1086,-0.5499,0.0963
1087,-0.5497,0.0899
1088,-0.5494,0.0833
1089,-0.5492,0.0767
1090,-0.5490,0.0700
1091,-0.5487,0.0631
1092,-0.5485,0.0562
1093,-0.5482,0.0493
1094,-0.5480,0.0422
1095,-0.5477,0.0352
1096,-0.5475,0.0280
1097,-0.5473,0.0209
1098,-0.5470,0.0137
1099,-0.5468,0.0065
1100,-0.5465,-0.0008
1101,-0.5463,-0.0080
1102,-0.5460,-0.0152
1103,-0.5458,-0.0224
1104,-0.5455,-0.0296
1105,-0.5453,-0.0367
1106,-0.5451,-0.0438
1107,-0.5448,-0.0509
1108,-0.5446,-0.0579
1109,-0.5443,-0.0648
1110,-0.5441,-0.0716
1111,-0.5438,-0.0784
1112,-0.5436,-0.0851
1113,-0.5433,-0.0916
1114,-0.5431,-0.0981
1115,-0.5429,-0.1044
1116,-0.5426,-0.1106
1117,-0.5424,-0.1167
1118,-0.5421,-0.1226
1119,-0.5419,-0.1284
1120,-0.5416,-0.1340
1121,-0.5414,-0.1395
1122,-0.5411,-0.1448
1123,-0.5409,-0.1499
1124,-0.5407,-0.1549
1125,-0.5404,-0.1596
1126,-0.5402,-0.1642
1127,-0.5399,-0.1685
1128,-0.5397,-0.1727
1129,-0.5394,-0.1766
1130,-0.5392,-0.1803
1131,-0.5390,-0.1838
1132,-0.5387,-0.1871
1133,-0.5385,-0.1901
1134,-0.5382,-0.1929
1135,-0.5380,-0.1955
1136,-0.5377,-0.1978
1137,-0.5375,-0.1999
1138,-0.5372,-0.2018
1139,-0.5370,-0.2034
1140,-0.5368,-0.2047
1141,-0.5365,-0.2058
1142,-0.5363,-0.2067
1143,-0.5360,-0.2072
1144,-0.5358,-0.2076
1145,-0.5355,-0.2076
1146,-0.5353,-0.2074
1147,-0.5350,-0.2070
1148,-0.5348,-0.2063
1149,-0.5346,-0.2053
1150,-0.5343,-0.2041
1151,-0.5341,-0.2027
1152,-0.5338,-0.2010
1153,-0.5336,-0.1990
1154,-0.5333,-0.1968
1155,-0.5331,-0.1943
1156,-0.5328,-0.1916
1157,-0.5326,-0.1887
1158,-0.5324,-0.1855
1159,-0.5321,-0.1821
1160,-0.5319,-0.1785
1161,-0.5316,-0.1746
1162,-0.5314,-0.1705
1163,-0.5311,-0.1663
1164,-0.5309,-0.1618
1165,-0.5307,-0.1571
1166,-0.5304,-0.1522
1167,-0.5302,-0.1471
1168,-0.5299,-0.1418
1169,-0.5297,-0.1364
1170,-0.5294,-0.1307
1171,-0.5292,-0.1250
1172,-0.5289,-0.1190
1173,-0.5287,-0.1129
1174,-0.5285,-0.1067
1175,-0.5282,-0.1003
1176,-0.5280,-0.0938
1177,-0.5277,-0.0872
1178,-0.5275,-0.0805
1179,-0.5272,-0.0736
1180,-0.5270,-0.0667
1181,-0.5267,-0.0597
1182,-0.5265,-0.0526
1183,-0.5263,-0.0454
1184,-0.5260,-0.0382
1185,-0.5258,-0.0310
1186,-0.5255,-0.0237
1187,-0.5253,-0.0163
1188,-0.5250,-0.0089
1189,-0.5248,-0.0016
1190,-0.5245,0.0058
1191,-0.5243,0.0132
1192,-0.5241,0.0206
1193,-0.5238,0.0279
1194,-0.5236,0.0352
1195,-0.5233,0.0425
1196,-0.5231,0.0497
1197,-0.5228,0.0568
1198,-0.5226,0.0639
1199,-0.5224,0.0709
1200,-0.5221,0.0779
1201,-0.5219,0.0847
1202,-0.5216,0.0914
1203,-0.5214,0.0980
1204,-0.5211,0.1045
1205,-0.5209,0.1109
1206,-0.5206,0.1171
1207,-0.5204,0.1232
1208,-0.5202,0.1291
1209,-0.5199,0.1348
1210,-0.5197,0.1404
1211,-0.5194,0.1459
1212,-0.5192,0.1511
1213,-0.5189,0.1561
1214,-0.5187,0.1610
1215,-0.5184,0.1656
1216,-0.5182,0.1701
1217,-0.5180,0.1743
1218,-0.5177,0.1783
1219,-0.5175,0.1821
1220,-0.5172,0.1857
1221,-0.5170,0.1890
1222,-0.5167,0.1921
1223,-0.5165,0.1949
1224,-0.5162,0.1975
1225,-0.5160,0.1999
1226,-0.5158,0.2020
1227,-0.5155,0.2038
1228,-0.5153,0.2054
1229,-0.5150,0.2067
1230,-0.5148,0.2078
1231,-0.5145,0.2086
1232,-0.5143,0.2091
1233,-0.5140,0.2094
1234,-0.5138,0.2094
1235,-0.5136,0.2091
1236,-0.5133,0.2086
1237,-0.5131,0.2078
1238,-0.5128,0.2068
1239,-0.5126,0.2054
1240,-0.5123,0.2039
1241,-0.5121,0.2020
1242,-0.5119,0.1999
1243,-0.5116,0.1976
1244,-0.5114,0.1949
1245,-0.5111,0.1921
1246,-0.5109,0.1890
1247,-0.5106,0.1856
1248,-0.5104,0.1821
1249,-0.5101,0.1782
1250,-0.5099,0.1742
1251,-0.5097,0.1699
1252,-0.5094,0.1654
1253,-0.5092,0.1607
1254,-0.5089,0.1558
1255,-0.5087,0.1507
1256,-0.5084,0.1454
1257,-0.5082,0.1399
1258,-0.5079,0.1343
1259,-0.5077,0.1284
1260,-0.5075,0.1224
1261,-0.5072,0.1162
1262,-0.5070,0.1099
1263,-0.5067,0.1034
1264,-0.5065,0.0968
1265,-0.5062,0.0901
1266,-0.5060,0.0833
1267,-0.5057,0.0763
1268,-0.5055,0.0693
1269,-0.5053,0.0621
1270,-0.5050,0.0549
1271,-0.5048,0.0476
1272,-0.5045,0.0402
1273,-0.5043,0.0328
1274,-0.5040,0.0254
1275,-0.5038,0.0179
1276,-0.5036,0.0103
1277,-0.5033,0.0028
1278,-0.5031,-0.0048
1279,-0.5028,-0.0123
1280,-0.5026,-0.0198
1281,-0.5023,-0.0273
1282,-0.5021,-0.0348
1283,-0.5018,-0.0422
1284,-0.5016,-0.0496
1285,-0.5014,-0.0569
1286,-0.5011,-0.0642
1287,-0.5009,-0.0714
1288,-0.5006,-0.0784
1289,-0.5004,-0.0854
1290,-0.5001,-0.0923
1291,-0.4999,-0.0990
1292,-0.4996,-0.1057
1293,-0.4994,-0.1122
1294,-0.4992,-0.1185
1295,-0.4989,-0.1247
1296,-0.4987,-0.1308
1297,-0.4984,-0.1366
1298,-0.4982,-0.1423
1299,-0.4979,-0.1479
1300,-0.4977,-0.1532
1301,-0.4974,-0.1583
1302,-0.4972,-0.1632
1303,-0.4970,-0.1680
1304,-0.4967,-0.1725
1305,-0.4965,-0.1767
1306,-0.4962,-0.1808
1307,-0.4960,-0.1846
1308,-0.4957,-0.1882
1309,-0.4955,-0.1915
1310,-0.4953,-0.1946
1311,-0.4950,-0.1975
1312,-0.4948,-0.2000
1313,-0.4945,-0.2024
1314,-0.4943,-0.2044
1315,-0.4940,-0.2062
1316,-0.4938,-0.2077
1317,-0.4935,-0.2090
1318,-0.4933,-0.2100
1319,-0.4931,-0.2107
1320,-0.4928,-0.2111
1321,-0.4926,-0.2113
1322,-0.4923,-0.2112
1323,-0.4921,-0.2108
1324,-0.4918,-0.2101
1325,-0.4916,-0.2092
1326,-0.4913,-0.2080
1327,-0.4911,-0.2065
1328,-0.4909,-0.2047
1329,-0.4906,-0.2027
1330,-0.4904,-0.2004
1331,-0.4901,-0.1979
1332,-0.4899,-0.1950
1333,-0.4896,-0.1920
1334,-0.4894,-0.1887
1335,-0.4891,-0.1851
1336,-0.4889,-0.1813
1337,-0.4887,-0.1772
1338,-0.4884,-0.1729
1339,-0.4882,-0.1684
1340,-0.4879,-0.1637
1341,-0.4877,-0.1587
1342,-0.4874,-0.1536
1343,-0.4872,-0.1482
1344,-0.4869,-0.1426
1345,-0.4867,-0.1369
1346,-0.4865,-0.1309
1347,-0.4862,-0.1248
1348,-0.4860,-0.1185
1349,-0.4857,-0.1121
1350,-0.4855,-0.1055
1351,-0.4852,-0.0988
1352,-0.4850,-0.0919
1353,-0.4848,-0.0849
1354,-0.4845,-0.0778
1355,-0.4843,-0.0706
1356,-0.4840,-0.0633
1357,-0.4838,-0.0560
1358,-0.4835,-0.0485
1359,-0.4833,-0.0410
1360,-0.4830,-0.0334
1361,-0.4828,-0.0257
1362,-0.4826,-0.0181
1363,-0.4823,-0.0104
1364,-0.4821,-0.0027
1365,-0.4818,0.0051
1366,-0.4816,0.0128
1367,-0.4813,0.0205
1368,-0.4811,0.0282
1369,-0.4808,0.0358
1370,-0.4806,0.0434
1371,-0.4804,0.0510
1372,-0.4801,0.0584
1373,-0.4799,0.0658
1374,-0.4796,0.0732
1375,-0.4794,0.0804
1376,-0.4791,0.0875
1377,-0.4789,0.0945
1378,-0.4786,0.1014
1379,-0.4784,0.1082
1380,-0.4782,0.1148
1381,-0.4779,0.1212
1382,-0.4777,0.1275
1383,-0.4774,0.1337
1384,-0.4772,0.1396
1385,-0.4769,0.1454
1386,-0.4767,0.1510
1387,-0.4765,0.1564
1388,-0.4762,0.1616
1389,-0.4760,0.1665
1390,-0.4757,0.1713
1391,-0.4755,0.1758
1392,-0.4752,0.1801
1393,-0.4750,0.1841
1394,-0.4747,0.1879
1395,-0.4745,0.1915
1396,-0.4743,0.1948
1397,-0.4740,0.1978
1398,-0.4738,0.2006
1399,-0.4735,0.2031
1400,-0.4733,0.2054
1401,-0.4730,0.2073
1402,-0.4728,0.2090
1403,-0.4725,0.2104
1404,-0.4723,0.2116
1405,-0.4721,0.2124
1406,-0.4718,0.2130
1407,-0.4716,0.2132
1408,-0.4713,0.2132
1409,-0.4711,0.2129
1410,-0.4708,0.2123
1411,-0.4706,0.2115
1412,-0.4703,0.2103
1413,-0.4701,0.2089
1414,-0.4699,0.2072
1415,-0.4696,0.2052
1416,-0.4694,0.2029
1417,-0.4691,0.2003
1418,-0.4689,0.1975
1419,-0.4686,0.1944
1420,-0.4684,0.1911
1421,-0.4682,0.1875
1422,-0.4679,0.1836
1423,-0.4677,0.1795
1424,-0.4674,0.1751
1425,-0.4672,0.1705
1426,-0.4669,0.1657
1427,-0.4667,0.1607
1428,-0.4664,0.1554
1429,-0.4662,0.1499
1430,-0.4660,0.1442
1431,-0.4657,0.1383
1432,-0.4655,0.1323
1433,-0.4652,0.1260
1434,-0.4650,0.1196
1435,-0.4647,0.1130
1436,-0.4645,0.1062
1437,-0.4642,0.0994
1438,-0.4640,0.0923
1439,-0.4638,0.0852
1440,-0.4635,0.0779
1441,-0.4633,0.0705
1442,-0.4630,0.0630
1443,-0.4628,0.0554
1444,-0.4625,0.0478
1445,-0.4623,0.0401
1446,-0.4620,0.0323
1447,-0.4618,0.0245
1448,-0.4616,0.0166
1449,-0.4613,0.0087
1450,-0.4611,0.0008
1451,-0.4608,-0.0071
1452,-0.4606,-0.0150
1453,-0.4603,-0.0229
1454,-0.4601,-0.0307
1455,-0.4599,-0.0386
1456,-0.4596,-0.0463
1457,-0.4594,-0.0540
1458,-0.4591,-0.0617
1459,-0.4589,-0.0692
1460,-0.4586,-0.0767
1461,-0.4584,-0.0840
1462,-0.4581,-0.0913
1463,-0.4579,-0.0984
1464,-0.4577,-0.1054
1465,-0.4574,-0.1123
1466,-0.4572,-0.1190
1467,-0.4569,-0.1255
1468,-0.4567,-0.1319
1469,-0.4564,-0.1381
1470,-0.4562,-0.1441
1471,-0.4559,-0.1499
1472,-0.4557,-0.1555
1473,-0.4555,-0.1609
1474,-0.4552,-0.1661
1475,-0.4550,-0.1710
1476,-0.4547,-0.1758
1477,-0.4545,-0.1803
1478,-0.4542,-0.1845
1479,-0.4540,-0.1885
1480,-0.4537,-0.1922
1481,-0.4535,-0.1957
1482,-0.4533,-0.1989
1483,-0.4530,-0.2018
1484,-0.4528,-0.2044
1485,-0.4525,-0.2068
1486,-0.4523,-0.2089
1487,-0.4520,-0.2107
1488,-0.4518,-0.2122
1489,-0.4515,-0.2134
1490,-0.4513,-0.2143
1491,-0.4511,-0.2149
1492,-0.4508,-0.2153
1493,-0.4506,-0.2153
1494,-0.4503,-0.2150
1495,-0.4501,-0.2145
1496,-0.4498,-0.2136
1497,-0.4496,-0.2124
1498,-0.4494,-0.2110
1499,-0.4491,-0.2092
1500,-0.4489,-0.2072
1501,-0.4486,-0.2049
1502,-0.4484,-0.2023
1503,-0.4481,-0.1994
1504,-0.4479,-0.1962
1505,-0.4476,-0.1928
1506,-0.4474,-0.1891
1507,-0.4472,-0.1851
1508,-0.4469,-0.1809
1509,-0.4467,-0.1764
1510,-0.4464,-0.1716
1511,-0.4462,-0.1667
1512,-0.4459,-0.1615
1513,-0.4457,-0.1560
1514,-0.4454,-0.1504
1515,-0.4452,-0.1445
1516,-0.4450,-0.1385
1517,-0.4447,-0.1322
1518,-0.4445,-0.1257
1519,-0.4442,-0.1191
1520,-0.4440,-0.1123
1521,-0.4437,-0.1054
1522,-0.4435,-0.0983
1523,-0.4432,-0.0910
1524,-0.4430,-0.0836
1525,-0.4428,-0.0761
1526,-0.4425,-0.0685
1527,-0.4423,-0.0608
1528,-0.4420,-0.0530
1529,-0.4418,-0.0452
1530,-0.4415,-0.0372
1531,-0.4413,-0.0292
1532,-0.4411,-0.0212
1533,-0.4408,-0.0131
1534,-0.4406,-0.0050
1535,-0.4403,0.0031
1536,-0.4401,0.0112
1537,-0.4398,0.0193
1538,-0.4396,0.0273
1539,-0.4393,0.0354
1540,-0.4391,0.0433
1541,-0.4389,0.0513
1542,-0.4386,0.0591
1543,-0.4384,0.0669
1544,-0.4381,0.0746
1545,-0.4379,0.0822
1546,-0.4376,0.0896
1547,-0.4374,0.0970
1548,-0.4371,0.1042
1549,-0.4369,0.1113
1550,-0.4367,0.1182
1551,-0.4364,0.1249
1552,-0.4362,0.1315
1553,-0.4359,0.1379
1554,-0.4357,0.1441
1555,-0.4354,0.1501
1556,-0.4352,0.1559
1557,-0.4349,0.1615
1558,-0.4347,0.1668
1559,-0.4345,0.1720
1560,-0.4342,0.1768
1561,-0.4340,0.1815
1562,-0.4337,0.1858
1563,-0.4335,0.1900
1564,-0.4332,0.1938
1565,-0.4330,0.1974
1566,-0.4328,0.2007
1567,-0.4325,0.2037
1568,-0.4323,0.2064
1569,-0.4320,0.2088
1570,-0.4318,0.2110
1571,-0.4315,0.2128
1572,-0.4313,0.2143
1573,-0.4310,0.2156
1574,-0.4308,0.2165
1575,-0.4306,0.2171
1576,-0.4303,0.2174
1577,-0.4301,0.2174
1578,-0.4298,0.2171
1579,-0.4296,0.2165
1580,-0.4293,0.2155
1581,-0.4291,0.2143
1582,-0.4288,0.2128
1583,-0.4286,0.2109
1584,-0.4284,0.2088
1585,-0.4281,0.2063
1586,-0.4279,0.2036
1587,-0.4276,0.2005
1588,-0.4274,0.1972
1589,-0.4271,0.1936
1590,-0.4269,0.1897
1591,-0.4266,0.1856
1592,-0.4264,0.1812
1593,-0.4262,0.1765
1594,-0.4259,0.1715
1595,-0.4257,0.1663
1596,-0.4254,0.1609
1597,-0.4252,0.1552
1598,-0.4249,0.1494
1599,-0.4247,0.1433
1600,-0.4244,0.1369
1601,-0.4242,0.1304
1602,-0.4240,0.1237
1603,-0.4237,0.1168
1604,-0.4235,0.1098
1605,-0.4232,0.1026
1606,-0.4230,0.0952
1607,-0.4227,0.0877
1608,-0.4225,0.0801
1609,-0.4223,0.0723
1610,-0.4220,0.0645
1611,-0.4218,0.0565
1612,-0.4215,0.0485
1613,-0.4213,0.0404
1614,-0.4210,0.0322
1615,-0.4208,0.0240
1616,-0.4205,0.0157
1617,-0.4203,0.0074
1618,-0.4201,-0.0009
1619,-0.4198,-0.0092
1620,-0.4196,-0.0175
1621,-0.4193,-0.0258
1622,-0.4191,-0.0340
1623,-0.4188,-0.0422
1624,-0.4186,-0.0504
1625,-0.4183,-0.0584
1626,-0.4181,-0.0664
1627,-0.4179,-0.0743
1628,-0.4176,-0.0821
1629,-0.4174,-0.0898
1630,-0.4171,-0.0973
1631,-0.4169,-0.1047
1632,-0.4166,-0.1120
1633,-0.4164,-0.1191
1634,-0.4161,-0.1260
1635,-0.4159,-0.1328
1636,-0.4157,-0.1393
1637,-0.4154,-0.1457
1638,-0.4152,-0.1518
1639,-0.4149,-0.1578
1640,-0.4147,-0.1635
1641,-0.4144,-0.1689
1642,-0.4142,-0.1742
1643,-0.4140,-0.1791
1644,-0.4137,-0.1839
1645,-0.4135,-0.1883
1646,-0.4132,-0.1925
1647,-0.4130,-0.1964
1648,-0.4127,-0.2000
1649,-0.4125,-0.2033
1650,-0.4122,-0.2063
1651,-0.4120,-0.2091
1652,-0.4118,-0.2115
1653,-0.4115,-0.2136
1654,-0.4113,-0.2154
1655,-0.4110,-0.2169
1656,-0.4108,-0.2180
1657,-0.4105,-0.2189
1658,-0.4103,-0.2194
1659,-0.4100,-0.2196
1660,-0.4098,-0.2195
1661,-0.4096,-0.2191
1662,-0.4093,-0.2183
1663,-0.4091,-0.2172
1664,-0.4088,-0.2158
1665,-0.4086,-0.2141
1666,-0.4083,-0.2121
1667,-0.4081,-0.2097
1668,-0.4078,-0.2071
1669,-0.4076,-0.2041
1670,-0.4074,-0.2008
1671,-0.4071,-0.1973
1672,-0.4069,-0.1934
1673,-0.4066,-0.1893
1674,-0.4064,-0.1849
1675,-0.4061,-0.1802
1676,-0.4059,-0.1752
1677,-0.4057,-0.1700
1678,-0.4054,-0.1645
1679,-0.4052,-0.1588
1680,-0.4049,-0.1528
1681,-0.4047,-0.1466
1682,-0.4044,-0.1402
1683,-0.4042,-0.1336
1684,-0.4039,-0.1268
1685,-0.4037,-0.1198
1686,-0.4035,-0.1126
1687,-0.4032,-0.1052
1688,-0.4030,-0.0977
1689,-0.4027,-0.0900
1690,-0.4025,-0.0822
1691,-0.4022,-0.0743
1692,-0.4020,-0.0662
1693,-0.4017,-0.0581
1694,-0.4015,-0.0498
1695,-0.4013,-0.0415
1696,-0.4010,-0.0331
1697,-0.4008,-0.0247
1698,-0.4005,-0.0162
1699,-0.4003,-0.0077
1700,-0.4000,0.0008
1701,-0.3998,0.0093
1702,-0.3995,0.0178
1703,-0.3993,0.0263
1704,-0.3991,0.0348
1705,-0.3988,0.0432
1706,-0.3986,0.0515
1707,-0.3983,0.0598
1708,-0.3981,0.0680
1709,-0.3978,0.0761
1710,-0.3976,0.0840
1711,-0.3974,0.0919
1712,-0.3971,0.0996
1713,-0.3969,0.1072
1714,-0.3966,0.1146
1715,-0.3964,0.1219
1716,-0.3961,0.1289
1717,-0.3959,0.1358
1718,-0.3956,0.1425
1719,-0.3954,0.1490
1720,-0.3952,0.1552
1721,-0.3949,0.1612
1722,-0.3947,0.1670
1723,-0.3944,0.1725
1724,-0.3942,0.1778
1725,-0.3939,0.1828
1726,-0.3937,0.1875
1727,-0.3934,0.1920
1728,-0.3932,0.1962
1729,-0.3930,0.2000
1730,-0.3927,0.2036
1731,-0.3925,0.2069
1732,-0.3922,0.2098
1733,-0.3920,0.2125
1734,-0.3917,0.2148
1735,-0.3915,0.2168
1736,-0.3912,0.2185
1737,-0.3910,0.2198
1738,-0.3908,0.2208
1739,-0.3905,0.2215
1740,-0.3903,0.2219
1741,-0.3900,0.2219
1742,-0.3898,0.2215
1743,-0.3895,0.2209
1744,-0.3893,0.2199
1745,-0.3890,0.2185
1746,-0.3888,0.2169
1747,-0.3886,0.2149
1748,-0.3883,0.2126
1749,-0.3881,0.2099
1750,-0.3878,0.2069
1751,-0.3876,0.2037
1752,-0.3873,0.2001
1753,-0.3871,0.1962
1754,-0.3869,0.1920
1755,-0.3866,0.1875
1756,-0.3864,0.1827
1757,-0.3861,0.1776
1758,-0.3859,0.1723
1759,-0.3856,0.1667
1760,-0.3854,0.1609
1761,-0.3851,0.1548
1762,-0.3849,0.1484
1763,-0.3847,0.1418
1764,-0.3844,0.1351
1765,-0.3842,0.1281
1766,-0.3839,0.1209
1767,-0.3837,0.1135
1768,-0.3834,0.1059
1769,-0.3832,0.0982
1770,-0.3829,0.0903
1771,-0.3827,0.0823
1772,-0.3825,0.0741
1773,-0.3822,0.0658
1774,-0.3820,0.0574
1775,-0.3817,0.0490
1776,-0.3815,0.0404
1777,-0.3812,0.0318
1778,-0.3810,0.0231
1779,-0.3807,0.0144
1780,-0.3805,0.0057
1781,-0.3803,-0.0031
1782,-0.3800,-0.0118
1783,-0.3798,-0.0205
1784,-0.3795,-0.0292
1785,-0.3793,-0.0379
1786,-0.3790,-0.0465
1787,-0.3788,-0.0551
1788,-0.3786,-0.0635
1789,-0.3783,-0.0719
1790,-0.3781,-0.0801
1791,-0.3778,-0.0883
1792,-0.3776,-0.0963
1793,-0.3773,-0.1042
1794,-0.3771,-0.1119
1795,-0.3768,-0.1194
1796,-0.3766,-0.1268
1797,-0.3764,-0.1339
1798,-0.3761,-0.1409
1799,-0.3759,-0.1476
1800,-0.3756,-0.1541
1801,-0.3754,-0.1604
1802,-0.3751,-0.1665
1803,-0.3749,-0.1722
1804,-0.3746,-0.1778
1805,-0.3744,-0.1830
1806,-0.3742,-0.1880
1807,-0.3739,-0.1926
1808,-0.3737,-0.1970
1809,-0.3734,-0.2011
1810,-0.3732,-0.2048
1811,-0.3729,-0.2083
1812,-0.3727,-0.2114
1813,-0.3724,-0.2142
1814,-0.3722,-0.2166
1815,-0.3720,-0.2188
1816,-0.3717,-0.2205
1817,-0.3715,-0.2220
1818,-0.3712,-0.2231
1819,-0.3710,-0.2238
1820,-0.3707,-0.2242
1821,-0.3705,-0.2243
1822,-0.3703,-0.2240
1823,-0.3700,-0.2233
1824,-0.3698,-0.2223
1825,-0.3695,-0.2209
1826,-0.3693,-0.2192
1827,-0.3690,-0.2172
1828,-0.3688,-0.2148
1829,-0.3685,-0.2121
1830,-0.3683,-0.2090
1831,-0.3681,-0.2056
1832,-0.3678,-0.2019
1833,-0.3676,-0.1979
1834,-0.3673,-0.1935
1835,-0.3671,-0.1889
1836,-0.3668,-0.1839
1837,-0.3666,-0.1787
1838,-0.3663,-0.1731
1839,-0.3661,-0.1673
1840,-0.3659,-0.1613
1841,-0.3656,-0.1549
1842,-0.3654,-0.1484
1843,-0.3651,-0.1416
1844,-0.3649,-0.1345
1845,-0.3646,-0.1273
1846,-0.3644,-0.1198
1847,-0.3641,-0.1121
1848,-0.3639,-0.1043
1849,-0.3637,-0.0963
1850,-0.3634,-0.0882
1851,-0.3632,-0.0799
1852,-0.3629,-0.0714
1853,-0.3627,-0.0629
1854,-0.3624,-0.0542
1855,-0.3622,-0.0455
1856,-0.3619,-0.0366
1857,-0.3617,-0.0278
1858,-0.3615,-0.0188
1859,-0.3612,-0.0099
1860,-0.3610,-0.0009
1861,-0.3607,0.0081
1862,-0.3605,0.0171
1863,-0.3602,0.0261
1864,-0.3600,0.0350
1865,-0.3598,0.0439
1866,-0.3595,0.0527
1867,-0.3593,0.0614
1868,-0.3590,0.0700
1869,-0.3588,0.0786
1870,-0.3585,0.0870
1871,-0.3583,0.0952
1872,-0.3580,0.1034
1873,-0.3578,0.1113
1874,-0.3576,0.1191
1875,-0.3573,0.1267
1876,-0.3571,0.1341
1877,-0.3568,0.1413
1878,-0.3566,0.1483
1879,-0.3563,0.1550
1880,-0.3561,0.1615
1881,-0.3558,0.1677
1882,-0.3556,0.1737
1883,-0.3554,0.1794
1884,-0.3551,0.1848
1885,-0.3549,0.1899
1886,-0.3546,0.1947
1887,-0.3544,0.1992
1888,-0.3541,0.2034
1889,-0.3539,0.2073
1890,-0.3536,0.2108
1891,-0.3534,0.2140
1892,-0.3532,0.2168
1893,-0.3529,0.2193
1894,-0.3527,0.2215
1895,-0.3524,0.2232
1896,-0.3522,0.2247
1897,-0.3519,0.2257
1898,-0.3517,0.2264
1899,-0.3515,0.2268
1900,-0.3512,0.2267
1901,-0.3510,0.2263
1902,-0.3507,0.2256
1903,-0.3505,0.2244
1904,-0.3502,0.2230
1905,-0.3500,0.2211
1906,-0.3497,0.2189
1907,-0.3495,0.2163
1908,-0.3493,0.2134
1909,-0.3490,0.2101
1910,-0.3488,0.2065
1911,-0.3485,0.2025
1912,-0.3483,0.1982
1913,-0.3480,0.1936
1914,-0.3478,0.1887
1915,-0.3475,0.1835
1916,-0.3473,0.1779
1917,-0.3471,0.1721
1918,-0.3468,0.1660
1919,-0.3466,0.1596
1920,-0.3463,0.1529
1921,-0.3461,0.1460
1922,-0.3458,0.1389
1923,-0.3456,0.1315
1924,-0.3453,0.1239
1925,-0.3451,0.1161
1926,-0.3449,0.1081
1927,-0.3446,0.0999
1928,-0.3444,0.0916
1929,-0.3441,0.0831
1930,-0.3439,0.0744
1931,-0.3436,0.0657
1932,-0.3434,0.0568
1933,-0.3432,0.0478
1934,-0.3429,0.0387
1935,-0.3427,0.0296
1936,-0.3424,0.0204
1937,-0.3422,0.0112
1938,-0.3419,0.0019
1939,-0.3417,-0.0073
1940,-0.3414,-0.0166
1941,-0.3412,-0.0258
1942,-0.3410,-0.0350
1943,-0.3407,-0.0441
1944,-0.3405,-0.0532
1945,-0.3402,-0.0622
1946,-0.3400,-0.0710
1947,-0.3397,-0.0798
1948,-0.3395,-0.0885
1949,-0.3392,-0.0970
1950,-0.3390,-0.1053
1951,-0.3388,-0.1135
1952,-0.3385,-0.1215
1953,-0.3383,-0.1293
1954,-0.3380,-0.1369
1955,-0.3378,-0.1442
1956,-0.3375,-0.1514
1957,-0.3373,-0.1583
1958,-0.3370,-0.1649
1959,-0.3368,-0.1712
1960,-0.3366,-0.1773
1961,-0.3363,-0.1831
1962,-0.3361,-0.1886
1963,-0.3358,-0.1937
1964,-0.3356,-0.1986
1965,-0.3353,-0.2031
1966,-0.3351,-0.2073
1967,-0.3349,-0.2111
1968,-0.3346,-0.2146
1969,-0.3344,-0.2177
1970,-0.3341,-0.2205
1971,-0.3339,-0.2229
1972,-0.3336,-0.2250
1973,-0.3334,-0.2266
1974,-0.3331,-0.2279
1975,-0.3329,-0.2288
1976,-0.3327,-0.2293
1977,-0.3324,-0.2295
1978,-0.3322,-0.2292
1979,-0.3319,-0.2286
1980,-0.3317,-0.2276
1981,-0.3314,-0.2262
1982,-0.3312,-0.2244
1983,-0.3309,-0.2222
1984,-0.3307,-0.2197
1985,-0.3305,-0.2168
1986,-0.3302,-0.2135
1987,-0.3300,-0.2099
1988,-0.3297,-0.2059
1989,-0.3295,-0.2016
1990,-0.3292,-0.1969
1991,-0.3290,-0.1919
1992,-0.3287,-0.1865
1993,-0.3285,-0.1809
1994,-0.3283,-0.1749
1995,-0.3280,-0.1686
1996,-0.3278,-0.1621
1997,-0.3275,-0.1553
1998,-0.3273,-0.1482
1999,-0.3270,-0.1408
2000,-0.3268,-0.1332
2001,-0.3265,-0.1254
2002,-0.3263,-0.1174
2003,-0.3261,-0.1091
2004,-0.3258,-0.1007
2005,-0.3256,-0.0921
2006,-0.3253,-0.0833
2007,-0.3251,-0.0744
2008,-0.3248,-0.0654
2009,-0.3246,-0.0562
2010,-0.3244,-0.0469
2011,-0.3241,-0.0376
2012,-0.3239,-0.0282
2013,-0.3236,-0.0187
2014,-0.3234,-0.0092
2015,-0.3231,0.0003
2016,-0.3229,0.0099
2017,-0.3226,0.0194
2018,-0.3224,0.0289
2019,-0.3222,0.0383
2020,-0.3219,0.0477
2021,-0.3217,0.0570
2022,-0.3214,0.0663
2023,-0.3212,0.0754
2024,-0.3209,0.0844
2025,-0.3207,0.0932
2026,-0.3204,0.1019
2027,-0.3202,0.1104
2028,-0.3200,0.1188
2029,-0.3197,0.1269
2030,-0.3195,0.1348
2031,-0.3192,0.1425
2032,-0.3190,0.1500
2033,-0.3187,0.1572
2034,-0.3185,0.1641
2035,-0.3182,0.1708
2036,-0.3180,0.1772
2037,-0.3178,0.1832
2038,-0.3175,0.1890
2039,-0.3173,0.1944
2040,-0.3170,0.1995
2041,-0.3168,0.2043
2042,-0.3165,0.2087
2043,-0.3163,0.2127
2044,-0.3161,0.2164
2045,-0.3158,0.2197
2046,-0.3156,0.2227
2047,-0.3153,0.2252
2048,-0.3151,0.2274
2049,-0.3148,0.2291
2050,-0.3146,0.2305
2051,-0.3143,0.2315
2052,-0.3141,0.2321
2053,-0.3139,0.2322
2054,-0.3136,0.2320
2055,-0.3134,0.2314
2056,-0.3131,0.2303
2057,-0.3129,0.2289
2058,-0.3126,0.2270
2059,-0.3124,0.2248
2060,-0.3121,0.2222
2061,-0.3119,0.2191
2062,-0.3117,0.2157
2063,-0.3114,0.2120
2064,-0.3112,0.2078
2065,-0.3109,0.2033
2066,-0.3107,0.1984
2067,-0.3104,0.1932
2068,-0.3102,0.1876
2069,-0.3099,0.1817
2070,-0.3097,0.1755
2071,-0.3095,0.1690
2072,-0.3092,0.1621
2073,-0.3090,0.1550
2074,-0.3087,0.1476
2075,-0.3085,0.1399
2076,-0.3082,0.1320
2077,-0.3080,0.1239
2078,-0.3078,0.1155
2079,-0.3075,0.1069
2080,-0.3073,0.0982
2081,-0.3070,0.0892
2082,-0.3068,0.0801
2083,-0.3065,0.0708
2084,-0.3063,0.0615
2085,-0.3060,0.0520
2086,-0.3058,0.0424
2087,-0.3056,0.0327
2088,-0.3053,0.0229
2089,-0.3051,0.0131
2090,-0.3048,0.0033
2091,-0.3046,-0.0065
2092,-0.3043,-0.0163
2093,-0.3041,-0.0261
2094,-0.3038,-0.0359
2095,-0.3036,-0.0456
2096,-0.3034,-0.0552
2097,-0.3031,-0.0647
2098,-0.3029,-0.0742
2099,-0.3026,-0.0835
2100,-0.3024,-0.0926
2101,-0.3021,-0.1016
2102,-0.3019,-0.1104
2103,-0.3016,-0.1191
2104,-0.3014,-0.1275
2105,-0.3012,-0.1357
2106,-0.3009,-0.1437
2107,-0.3007,-0.1514
2108,-0.3004,-0.1588
2109,-0.3002,-0.1660
2110,-0.2999,-0.1729
2111,-0.2997,-0.1794
2112,-0.2994,-0.1857
2113,-0.2992,-0.1916
2114,-0.2990,-0.1972
2115,-0.2987,-0.2024
2116,-0.2985,-0.2073
2117,-0.2982,-0.2118
2118,-0.2980,-0.2159
2119,-0.2977,-0.2197
2120,-0.2975,-0.2230
2121,-0.2973,-0.2260
2122,-0.2970,-0.2285
2123,-0.2968,-0.2307
2124,-0.2965,-0.2324
2125,-0.2963,-0.2337
2126,-0.2960,-0.2346
2127,-0.2958,-0.2351
2128,-0.2955,-0.2351
2129,-0.2953,-0.2347
2130,-0.2951,-0.2339
2131,-0.2948,-0.2327
2132,-0.2946,-0.2310
2133,-0.2943,-0.2290
2134,-0.2941,-0.2265
2135,-0.2938,-0.2236
2136,-0.2936,-0.2203
2137,-0.2933,-0.2166
2138,-0.2931,-0.2125
2139,-0.2929,-0.2080
2140,-0.2926,-0.2031
2141,-0.2924,-0.1979
2142,-0.2921,-0.1923
2143,-0.2919,-0.1863
2144,-0.2916,-0.1800
2145,-0.2914,-0.1734
2146,-0.2911,-0.1665
2147,-0.2909,-0.1592
2148,-0.2907,-0.1517
2149,-0.2904,-0.1438
2150,-0.2902,-0.1357
2151,-0.2899,-0.1274
2152,-0.2897,-0.1188
2153,-0.2894,-0.1100
2154,-0.2892,-0.1010
2155,-0.2890,-0.0918
2156,-0.2887,-0.0824
2157,-0.2885,-0.0729
2158,-0.2882,-0.0632
2159,-0.2880,-0.0534
2160,-0.2877,-0.0435
2161,-0.2875,-0.0335
2162,-0.2872,-0.0235
2163,-0.2870,-0.0134
2164,-0.2868,-0.0032
2165,-0.2865,0.0069
2166,-0.2863,0.0171
2167,-0.2860,0.0272
2168,-0.2858,0.0372
2169,-0.2855,0.0473
2170,-0.2853,0.0572
2171,-0.2850,0.0670
2172,-0.2848,0.0767
2173,-0.2846,0.0863
2174,-0.2843,0.0957
2175,-0.2841,0.1050
2176,-0.2838,0.1140
2177,-0.2836,0.1229
2178,-0.2833,0.1315
2179,-0.2831,0.1399
2180,-0.2828,0.1481
2181,-0.2826,0.1559
2182,-0.2824,0.1635
2183,-0.2821,0.1708
2184,-0.2819,0.1778
2185,-0.2816,0.1844
2186,-0.2814,0.1907
2187,-0.2811,0.1967
2188,-0.2809,0.2023
2189,-0.2807,0.2075
2190,-0.2804,0.2124
2191,-0.2802,0.2168
2192,-0.2799,0.2209
2193,-0.2797,0.2245
2194,-0.2794,0.2277
2195,-0.2792,0.2305
2196,-0.2789,0.2329
2197,-0.2787,0.2348
2198,-0.2785,0.2363
2199,-0.2782,0.2374
2200,-0.2780,0.2380
2201,-0.2777,0.2382
2202,-0.2775,0.2379
2203,-0.2772,0.2372
2204,-0.2770,0.2360
2205,-0.2767,0.2344
2206,-0.2765,0.2323
2207,-0.2763,0.2298
2208,-0.2760,0.2269
2209,-0.2758,0.2235
2210,-0.2755,0.2197
2211,-0.2753,0.2155
2212,-0.2750,0.2109
2213,-0.2748,0.2059
2214,-0.2745,0.2005
2215,-0.2743,0.1947
2216,-0.2741,0.1886
2217,-0.2738,0.1821
2218,-0.2736,0.1752
2219,-0.2733,0.1680
2220,-0.2731,0.1605
2221,-0.2728,0.1527
2222,-0.2726,0.1445
2223,-0.2724,0.1361
2224,-0.2721,0.1275
2225,-0.2719,0.1185
2226,-0.2716,0.1094
2227,-0.2714,0.1000
2228,-0.2711,0.0905
2229,-0.2709,0.0807
2230,-0.2706,0.0708
2231,-0.2704,0.0608
2232,-0.2702,0.0506
2233,-0.2699,0.0404
2234,-0.2697,0.0300
2235,-0.2694,0.0196
2236,-0.2692,0.0092
2237,-0.2689,-0.0013
2238,-0.2687,-0.0118
2239,-0.2684,-0.0223
2240,-0.2682,-0.0327
2241,-0.2680,-0.0431
2242,-0.2677,-0.0534
2243,-0.2675,-0.0636
2244,-0.2672,-0.0737
2245,-0.2670,-0.0836
2246,-0.2667,-0.0934
2247,-0.2665,-0.1031
2248,-0.2662,-0.1125
2249,-0.2660,-0.1217
2250,-0.2658,-0.1307
2251,-0.2655,-0.1395
2252,-0.2653,-0.1480
2253,-0.2650,-0.1562
2254,-0.2648,-0.1641
2255,-0.2645,-0.1717
2256,-0.2643,-0.1790
2257,-0.2640,-0.1859
2258,-0.2638,-0.1925
2259,-0.2636,-0.1987
2260,-0.2633,-0.2045
2261,-0.2631,-0.2100
2262,-0.2628,-0.2150
2263,-0.2626,-0.2196
2264,-0.2623,-0.2238
2265,-0.2621,-0.2276
2266,-0.2619,-0.2309
2267,-0.2616,-0.2338
2268,-0.2614,-0.2362
2269,-0.2611,-0.2382
2270,-0.2609,-0.2397
2271,-0.2606,-0.2407
2272,-0.2604,-0.2413
2273,-0.2601,-0.2414
2274,-0.2599,-0.2410
2275,-0.2597,-0.2402
2276,-0.2594,-0.2389
2277,-0.2592,-0.2371
2278,-0.2589,-0.2348
2279,-0.2587,-0.2321
2280,-0.2584,-0.2289
2281,-0.2582,-0.2253
2282,-0.2579,-0.2213
2283,-0.2577,-0.2168
2284,-0.2575,-0.2118
2285,-0.2572,-0.2065
2286,-0.2570,-0.2007
2287,-0.2567,-0.1946
2288,-0.2565,-0.1880
2289,-0.2562,-0.1811
2290,-0.2560,-0.1738
2291,-0.2557,-0.1662
2292,-0.2555,-0.1582
2293,-0.2553,-0.1500
2294,-0.2550,-0.1414
2295,-0.2548,-0.1325
2296,-0.2545,-0.1234
2297,-0.2543,-0.1140
2298,-0.2540,-0.1044
2299,-0.2538,-0.0945
2300,-0.2536,-0.0845
2301,-0.2533,-0.0743
2302,-0.2531,-0.0639
2303,-0.2528,-0.0534
2304,-0.2526,-0.0428
2305,-0.2523,-0.0321
2306,-0.2521,-0.0214
2307,-0.2518,-0.0105
2308,-0.2516,0.0003
2309,-0.2514,0.0112
2310,-0.2511,0.0220
2311,-0.2509,0.0328
2312,-0.2506,0.0435
2313,-0.2504,0.0542
2314,-0.2501,0.0648
2315,-0.2499,0.0752
2316,-0.2496,0.0855
2317,-0.2494,0.0957
2318,-0.2492,0.1056
2319,-0.2489,0.1154
2320,-0.2487,0.1249
2321,-0.2484,0.1342
2322,-0.2482,0.1432
2323,-0.2479,0.1519
2324,-0.2477,0.1603
2325,-0.2474,0.1685
2326,-0.2472,0.1763
2327,-0.2470,0.1837
2328,-0.2467,0.1908
2329,-0.2465,0.1974
2330,-0.2462,0.2037
2331,-0.2460,0.2096
2332,-0.2457,0.2151
2333,-0.2455,0.2201
2334,-0.2453,0.2247
2335,-0.2450,0.2289
2336,-0.2448,0.2326
2337,-0.2445,0.2358
2338,-0.2443,0.2385
2339,-0.2440,0.2408
2340,-0.2438,0.2425
2341,-0.2435,0.2438
2342,-0.2433,0.2446
2343,-0.2431,0.2449
2344,-0.2428,0.2446
2345,-0.2426,0.2439
2346,-0.2423,0.2427
2347,-0.2421,0.2410
2348,-0.2418,0.2388
2349,-0.2416,0.2361
2350,-0.2413,0.2329
2351,-0.2411,0.2293
2352,-0.2409,0.2251
2353,-0.2406,0.2205
2354,-0.2404,0.2155
2355,-0.2401,0.2100
2356,-0.2399,0.2040
2357,-0.2396,0.1977
2358,-0.2394,0.1909
2359,-0.2391,0.1838
2360,-0.2389,0.1762
2361,-0.2387,0.1683
2362,-0.2384,0.1600
2363,-0.2382,0.1514
2364,-0.2379,0.1425
2365,-0.2377,0.1333
2366,-0.2374,0.1238
2367,-0.2372,0.1140
2368,-0.2369,0.1040
2369,-0.2367,0.0937
2370,-0.2365,0.0833
2371,-0.2362,0.0727
2372,-0.2360,0.0619
2373,-0.2357,0.0510
2374,-0.2355,0.0400
2375,-0.2352,0.0288
2376,-0.2350,0.0176
2377,-0.2348,0.0064
2378,-0.2345,-0.0049
2379,-0.2343,-0.0161
2380,-0.2340,-0.0273
2381,-0.2338,-0.0385
2382,-0.2335,-0.0496
2383,-0.2333,-0.0606
2384,-0.2330,-0.0715
2385,-0.2328,-0.0823
2386,-0.2326,-0.0929
2387,-0.2323,-0.1033
2388,-0.2321,-0.1135
2389,-0.2318,-0.1234
2390,-0.2316,-0.1332
2391,-0.2313,-0.1426
2392,-0.2311,-0.1517
2393,-0.2308,-0.1606
2394,-0.2306,-0.1691
2395,-0.2304,-0.1772
2396,-0.2301,-0.1850
2397,-0.2299,-0.1924
2398,-0.2296,-0.1994
2399,-0.2294,-0.2060
2400,-0.2291,-0.2122
2401,-0.2289,-0.2179
2402,-0.2286,-0.2232
2403,-0.2284,-0.2280
2404,-0.2282,-0.2323
2405,-0.2279,-0.2361
2406,-0.2277,-0.2394
2407,-0.2274,-0.2422
2408,-0.2272,-0.2445
2409,-0.2269,-0.2463
2410,-0.2267,-0.2476
2411,-0.2265,-0.2483
2412,-0.2262,-0.2485
2413,-0.2260,-0.2482
2414,-0.2257,-0.2474
2415,-0.2255,-0.2460
2416,-0.2252,-0.2441
2417,-0.2250,-0.2417
2418,-0.2247,-0.2387
2419,-0.2245,-0.2353
2420,-0.2243,-0.2313
2421,-0.2240,-0.2268
2422,-0.2238,-0.2219
2423,-0.2235,-0.2164
2424,-0.2233,-0.2105
2425,-0.2230,-0.2042
2426,-0.2228,-0.1974
2427,-0.2225,-0.1901
2428,-0.2223,-0.1825
2429,-0.2221,-0.1744
2430,-0.2218,-0.1660
2431,-0.2216,-0.1572
2432,-0.2213,-0.1481
2433,-0.2211,-0.1386
2434,-0.2208,-0.1288
2435,-0.2206,-0.1187
2436,-0.2203,-0.1084
2437,-0.2201,-0.0978
2438,-0.2199,-0.0870
2439,-0.2196,-0.0761
2440,-0.2194,-0.0649
2441,-0.2191,-0.0536
2442,-0.2189,-0.0421
2443,-0.2186,-0.0306
2444,-0.2184,-0.0190
2445,-0.2182,-0.0073
2446,-0.2179,0.0044
2447,-0.2177,0.0161
2448,-0.2174,0.0277
2449,-0.2172,0.0394
2450,-0.2169,0.0509
2451,-0.2167,0.0623
2452,-0.2164,0.0737
2453,-0.2162,0.0848
2454,-0.2160,0.0958
2455,-0.2157,0.1066
2456,-0.2155,0.1171
2457,-0.2152,0.1274
2458,-0.2150,0.1375
2459,-0.2147,0.1472
2460,-0.2145,0.1566
2461,-0.2142,0.1657
2462,-0.2140,0.1745
2463,-0.2138,0.1828
2464,-0.2135,0.1908
2465,-0.2133,0.1983
2466,-0.2130,0.2054
2467,-0.2128,0.2121
2468,-0.2125,0.2183
2469,-0.2123,0.2240
2470,-0.2120,0.2292
2471,-0.2118,0.2339
2472,-0.2116,0.2381
2473,-0.2113,0.2418
2474,-0.2111,0.2450
2475,-0.2108,0.2476
2476,-0.2106,0.2496
2477,-0.2103,0.2511
2478,-0.2101,0.2521
2479,-0.2099,0.2524
2480,-0.2096,0.2523
2481,-0.2094,0.2515
2482,-0.2091,0.2502
2483,-0.2089,0.2483
2484,-0.2086,0.2459
2485,-0.2084,0.2429
2486,-0.2081,0.2394
2487,-0.2079,0.2353
2488,-0.2077,0.2307
2489,-0.2074,0.2256
2490,-0.2072,0.2199
2491,-0.2069,0.2138
2492,-0.2067,0.2072
2493,-0.2064,0.2001
2494,-0.2062,0.1925
2495,-0.2059,0.1845
2496,-0.2057,0.1761
2497,-0.2055,0.1673
2498,-0.2052,0.1581
2499,-0.2050,0.1485
2500,-0.2047,0.1386
2501,-0.2045,0.1283
2502,-0.2042,0.1178
2503,-0.2040,0.1070
2504,-0.2037,0.0959
2505,-0.2035,0.0846
2506,-0.2033,0.0731
2507,-0.2030,0.0614
2508,-0.2028,0.0496
2509,-0.2025,0.0376
2510,-0.2023,0.0255
2511,-0.2020,0.0134
2512,-0.2018,0.0013
2513,-0.2015,-0.0109
2514,-0.2013,-0.0231
2515,-0.2011,-0.0352
2516,-0.2008,-0.0472
2517,-0.2006,-0.0592
2518,-0.2003,-0.0710
2519,-0.2001,-0.0827
2520,-0.1998,-0.0942
2521,-0.1996,-0.1055
2522,-0.1994,-0.1165
2523,-0.1991,-0.1273
2524,-0.1989,-0.1378
2525,-0.1986,-0.1480
2526,-0.1984,-0.1579
2527,-0.1981,-0.1674
2528,-0.1979,-0.1765
2529,-0.1976,-0.1853
2530,-0.1974,-0.1936
2531,-0.1972,-0.2014
2532,-0.1969,-0.2088
2533,-0.1967,-0.2158
2534,-0.1964,-0.2222
2535,-0.1962,-0.2281
2536,-0.1959,-0.2335
2537,-0.1957,-0.2384
2538,-0.1954,-0.2427
2539,-0.1952,-0.2464
2540,-0.1950,-0.2496
2541,-0.1947,-0.2522
2542,-0.1945,-0.2542
2543,-0.1942,-0.2556
2544,-0.1940,-0.2564
2545,-0.1937,-0.2566
2546,-0.1935,-0.2562
2547,-0.1932,-0.2552
2548,-0.1930,-0.2537
2549,-0.1928,-0.2515
2550,-0.1925,-0.2487
2551,-0.1923,-0.2453
2552,-0.1920,-0.2414
2553,-0.1918,-0.2368
2554,-0.1915,-0.2317
2555,-0.1913,-0.2261
2556,-0.1911,-0.2199
2557,-0.1908,-0.2132
2558,-0.1906,-0.2060
2559,-0.1903,-0.1983
2560,-0.1901,-0.1901
2561,-0.1898,-0.1814
2562,-0.1896,-0.1723
2563,-0.1893,-0.1628
2564,-0.1891,-0.1529
2565,-0.1889,-0.1426
2566,-0.1886,-0.1320
2567,-0.1884,-0.1210
2568,-0.1881,-0.1098
2569,-0.1879,-0.0983
2570,-0.1876,-0.0865
2571,-0.1874,-0.0745
2572,-0.1871,-0.0623
2573,-0.1869,-0.0500
2574,-0.1867,-0.0375
2575,-0.1864,-0.0249
2576,-0.1862,-0.0123
2577,-0.1859,0.0004
2578,-0.1857,0.0131
2579,-0.1854,0.0258
2580,-0.1852,0.0384
2581,-0.1849,0.0509
2582,-0.1847,0.0634
2583,-0.1845,0.0757
2584,-0.1842,0.0878
2585,-0.1840,0.0997
2586,-0.1837,0.1114
2587,-0.1835,0.1228
2588,-0.1832,0.1340
2589,-0.1830,0.1448
2590,-0.1828,0.1553
2591,-0.1825,0.1654
2592,-0.1823,0.1752
2593,-0.1820,0.1845
2594,-0.1818,0.1933
2595,-0.1815,0.2018
2596,-0.1813,0.2097
2597,-0.1810,0.2171
2598,-0.1808,0.2240
2599,-0.1806,0.2303
2600,-0.1803,0.2361
2601,-0.1801,0.2414
2602,-0.1798,0.2460
2603,-0.1796,0.2500
2604,-0.1793,0.2534
2605,-0.1791,0.2563
2606,-0.1788,0.2584
2607,-0.1786,0.2600
2608,-0.1784,0.2609
2609,-0.1781,0.2611
2610,-0.1779,0.2607
2611,-0.1776,0.2597
2612,-0.1774,0.2580
2613,-0.1771,0.2557
2614,-0.1769,0.2527
2615,-0.1766,0.2492
2616,-0.1764,0.2450
2617,-0.1762,0.2401
2618,-0.1759,0.2347
2619,-0.1757,0.2287
2620,-0.1754,0.2221
2621,-0.1752,0.2150
2622,-0.1749,0.2073
2623,-0.1747,0.1990
2624,-0.1744,0.1903
2625,-0.1742,0.1811
2626,-0.1740,0.1714
2627,-0.1737,0.1613
2628,-0.1735,0.1508
2629,-0.1732,0.1399
2630,-0.1730,0.1286
2631,-0.1727,0.1170
2632,-0.1725,0.1051
2633,-0.1723,0.0929
2634,-0.1720,0.0804
2635,-0.1718,0.0677
2636,-0.1715,0.0549
2637,-0.1713,0.0419
2638,-0.1710,0.0288
2639,-0.1708,0.0156
2640,-0.1705,0.0023
2641,-0.1703,-0.0109
2642,-0.1701,-0.0242
2643,-0.1698,-0.0374
2644,-0.1696,-0.0506
2645,-0.1693,-0.0636
2646,-0.1691,-0.0764
2647,-0.1688,-0.0891
2648,-0.1686,-0.1016
2649,-0.1683,-0.1138
2650,-0.1681,-0.1258
2651,-0.1679,-0.1374
2652,-0.1676,-0.1487
2653,-0.1674,-0.1596
2654,-0.1671,-0.1702
2655,-0.1669,-0.1803
2656,-0.1666,-0.1899
2657,-0.1664,-0.1991
2658,-0.1661,-0.2078
2659,-0.1659,-0.2159
2660,-0.1657,-0.2235
2661,-0.1654,-0.2305
2662,-0.1652,-0.2370
2663,-0.1649,-0.2428
2664,-0.1647,-0.2480
2665,-0.1644,-0.2526
2666,-0.1642,-0.2565
2667,-0.1640,-0.2597
2668,-0.1637,-0.2623
2669,-0.1635,-0.2642
2670,-0.1632,-0.2654
2671,-0.1630,-0.2660
2672,-0.1627,-0.2658
2673,-0.1625,-0.2649
2674,-0.1622,-0.2634
2675,-0.1620,-0.2611
2676,-0.1618,-0.2582
2677,-0.1615,-0.2546
2678,-0.1613,-0.2503
2679,-0.1610,-0.2453
2680,-0.1608,-0.2397
2681,-0.1605,-0.2335
2682,-0.1603,-0.2266
2683,-0.1600,-0.2192
2684,-0.1598,-0.2111
2685,-0.1596,-0.2025
2686,-0.1593,-0.1933
2687,-0.1591,-0.1837
2688,-0.1588,-0.1735
2689,-0.1586,-0.1628
2690,-0.1583,-0.1517
2691,-0.1581,-0.1402
2692,-0.1578,-0.1283
2693,-0.1576,-0.1161
2694,-0.1574,-0.1035
2695,-0.1571,-0.0906
2696,-0.1569,-0.0775
2697,-0.1566,-0.0642
2698,-0.1564,-0.0506
2699,-0.1561,-0.0369
2700,-0.1559,-0.0231
2701,-0.1557,-0.0093
2702,-0.1554,0.0047
2703,-0.1552,0.0186
2704,-0.1549,0.0325
2705,-0.1547,0.0463
2706,-0.1544,0.0600
2707,-0.1542,0.0735
2708,-0.1539,0.0869
2709,-0.1537,0.1001
2710,-0.1535,0.1130
2711,-0.1532,0.1256
2712,-0.1530,0.1379
2713,-0.1527,0.1498
2714,-0.1525,0.1613
2715,-0.1522,0.1724
2716,-0.1520,0.1831
2717,-0.1517,0.1932
2718,-0.1515,0.2029
2719,-0.1513,0.2120
2720,-0.1510,0.2205
2721,-0.1508,0.2284
2722,-0.1505,0.2358
2723,-0.1503,0.2425
2724,-0.1500,0.2485
2725,-0.1498,0.2538
2726,-0.1495,0.2585
2727,-0.1493,0.2625
2728,-0.1491,0.2657
2729,-0.1488,0.2682
2730,-0.1486,0.2700
2731,-0.1483,0.2710
2732,-0.1481,0.2713
2733,-0.1478,0.2708
2734,-0.1476,0.2696
2735,-0.1474,0.2676
2736,-0.1471,0.2649
2737,-0.1469,0.2614
2738,-0.1466,0.2572
2739,-0.1464,0.2523
2740,-0.1461,0.2467
2741,-0.1459,0.2404
2742,-0.1456,0.2334
2743,-0.1454,0.2257
2744,-0.1452,0.2174
2745,-0.1449,0.2085
2746,-0.1447,0.1990
2747,-0.1444,0.1889
2748,-0.1442,0.1783
2749,-0.1439,0.1671
2750,-0.1437,0.1555
2751,-0.1434,0.1434
2752,-0.1432,0.1309
2753,-0.1430,0.1180
2754,-0.1427,0.1048
2755,-0.1425,0.0912
2756,-0.1422,0.0774
2757,-0.1420,0.0633
2758,-0.1417,0.0491
2759,-0.1415,0.0347
2760,-0.1412,0.0201
2761,-0.1410,0.0055
2762,-0.1408,-0.0091
2763,-0.1405,-0.0238
2764,-0.1403,-0.0384
2765,-0.1400,-0.0529
2766,-0.1398,-0.0672
2767,-0.1395,-0.0814
2768,-0.1393,-0.0954
2769,-0.1390,-0.1091
2770,-0.1388,-0.1225
2771,-0.1386,-0.1356
2772,-0.1383,-0.1483
2773,-0.1381,-0.1606
2774,-0.1378,-0.1725
2775,-0.1376,-0.1838
2776,-0.1373,-0.1947
2777,-0.1371,-0.2050
2778,-0.1369,-0.2147
2779,-0.1366,-0.2238
2780,-0.1364,-0.2323
2781,-0.1361,-0.2401
2782,-0.1359,-0.2472
2783,-0.1356,-0.2536
2784,-0.1354,-0.2592
2785,-0.1351,-0.2641
2786,-0.1349,-0.2683
2787,-0.1347,-0.2716
2788,-0.1344,-0.2742
2789,-0.1342,-0.2760
2790,-0.1339,-0.2769
2791,-0.1337,-0.2771
2792,-0.1334,-0.2764
2793,-0.1332,-0.2749
2794,-0.1329,-0.2726
2795,-0.1327,-0.2695
2796,-0.1325,-0.2655
2797,-0.1322,-0.2608
2798,-0.1320,-0.2553
2799,-0.1317,-0.2491
2800,-0.1315,-0.2420
2801,-0.1312,-0.2343
2802,-0.1310,-0.2258
2803,-0.1307,-0.2167
2804,-0.1305,-0.2069
2805,-0.1303,-0.1965
2806,-0.1300,-0.1854
2807,-0.1298,-0.1738
2808,-0.1295,-0.1617
2809,-0.1293,-0.1490
2810,-0.1290,-0.1359
2811,-0.1288,-0.1224
2812,-0.1286,-0.1084
2813,-0.1283,-0.0941
2814,-0.1281,-0.0796
2815,-0.1278,-0.0647
2816,-0.1276,-0.0497
2817,-0.1273,-0.0344
2818,-0.1271,-0.0191
2819,-0.1268,-0.0036
2820,-0.1266,0.0118
2821,-0.1264,0.0273
2822,-0.1261,0.0427
2823,-0.1259,0.0580
2824,-0.1256,0.0731
2825,-0.1254,0.0880
2826,-0.1251,0.1027
2827,-0.1249,0.1171
2828,-0.1246,0.1312
2829,-0.1244,0.1448
2830,-0.1242,0.1580
2831,-0.1239,0.1708
2832,-0.1237,0.1831
2833,-0.1234,0.1948
2834,-0.1232,0.2059
2835,-0.1229,0.2164
2836,-0.1227,0.2262
2837,-0.1224,0.2354
2838,-0.1222,0.2438
2839,-0.1220,0.2515
2840,-0.1217,0.2584
2841,-0.1215,0.2645
2842,-0.1212,0.2698
2843,-0.1210,0.2742
2844,-0.1207,0.2778
2845,-0.1205,0.2805
2846,-0.1203,0.2824
2847,-0.1200,0.2834
2848,-0.1198,0.2834
2849,-0.1195,0.2826
2850,-0.1193,0.2809
2851,-0.1190,0.2783
2852,-0.1188,0.2748
2853,-0.1185,0.2704
2854,-0.1183,0.2652
2855,-0.1181,0.2591
2856,-0.1178,0.2522
2857,-0.1176,0.2444
2858,-0.1173,0.2359
2859,-0.1171,0.2266
2860,-0.1168,0.2165
2861,-0.1166,0.2058
2862,-0.1163,0.1944
2863,-0.1161,0.1823
2864,-0.1159,0.1696
2865,-0.1156,0.1564
2866,-0.1154,0.1426
2867,-0.1151,0.1284
2868,-0.1149,0.1137
2869,-0.1146,0.0986
2870,-0.1144,0.0832
2871,-0.1141,0.0675
2872,-0.1139,0.0515
2873,-0.1137,0.0354
2874,-0.1134,0.0191
2875,-0.1132,0.0027
2876,-0.1129,-0.0137
2877,-0.1127,-0.0301
2878,-0.1124,-0.0464
2879,-0.1122,-0.0626
2880,-0.1119,-0.0786
2881,-0.1117,-0.0944
2882,-0.1115,-0.1099
2883,-0.1112,-0.1251
2884,-0.1110,-0.1398
2885,-0.1107,-0.1542
2886,-0.1105,-0.1680
2887,-0.1102,-0.1813
2888,-0.1100,-0.1940
2889,-0.1098,-0.2061
2890,-0.1095,-0.2176
2891,-0.1093,-0.2283
2892,-0.1090,-0.2383
2893,-0.1088,-0.2475
2894,-0.1085,-0.2558
2895,-0.1083,-0.2634
2896,-0.1080,-0.2700
2897,-0.1078,-0.2758
2898,-0.1076,-0.2806
2899,-0.1073,-0.2846
2900,-0.1071,-0.2875
2901,-0.1068,-0.2895
2902,-0.1066,-0.2905
2903,-0.1063,-0.2905
2904,-0.1061,-0.2896
2905,-0.1058,-0.2876
2906,-0.1056,-0.2847
2907,-0.1054,-0.2808
2908,-0.1051,-0.2759
2909,-0.1049,-0.2700
2910,-0.1046,-0.2633
2911,-0.1044,-0.2556
2912,-0.1041,-0.2470
2913,-0.1039,-0.2376
2914,-0.1036,-0.2273
2915,-0.1034,-0.2162
2916,-0.1032,-0.2044
2917,-0.1029,-0.1918
2918,-0.1027,-0.1785
2919,-0.1024,-0.1646
2920,-0.1022,-0.1501
2921,-0.1019,-0.1351
2922,-0.1017,-0.1196
2923,-0.1015,-0.1036
2924,-0.1012,-0.0872
2925,-0.1010,-0.0705
2926,-0.1007,-0.0535
2927,-0.1005,-0.0363
2928,-0.1002,-0.0189
2929,-0.1000,-0.0014
2930,-0.0997,0.0161
2931,-0.0995,0.0335
2932,-0.0993,0.0509
2933,-0.0990,0.0682
2934,-0.0988,0.0852
2935,-0.0985,0.1019
2936,-0.0983,0.1184
2937,-0.0980,0.1344
2938,-0.0978,0.1500
2939,-0.0975,0.1650
2940,-0.0973,0.1796
2941,-0.0971,0.1934
2942,-0.0968,0.2067
2943,-0.0966,0.2192
2944,-0.0963,0.2309
2945,-0.0961,0.2418
2946,-0.0958,0.2519
2947,-0.0956,0.2610
2948,-0.0953,0.2693
2949,-0.0951,0.2765
2950,-0.0949,0.2828
2951,-0.0946,0.2881
2952,-0.0944,0.2923
2953,-0.0941,0.2955
2954,-0.0939,0.2975
2955,-0.0936,0.2985
2956,-0.0934,0.2984
2957,-0.0932,0.2972
2958,-0.0929,0.2949
2959,-0.0927,0.2915
2960,-0.0924,0.2870
2961,-0.0922,0.2815
2962,-0.0919,0.2749
2963,-0.0917,0.2672
2964,-0.0914,0.2586
2965,-0.0912,0.2489
2966,-0.0910,0.2383
2967,-0.0907,0.2268
2968,-0.0905,0.2145
2969,-0.0902,0.2013
2970,-0.0900,0.1873
2971,-0.0897,0.1726
2972,-0.0895,0.1572
2973,-0.0892,0.1411
2974,-0.0890,0.1245
2975,-0.0888,0.1074
2976,-0.0885,0.0899
2977,-0.0883,0.0720
2978,-0.0880,0.0537
2979,-0.0878,0.0353
2980,-0.0875,0.0166
2981,-0.0873,-0.0021
2982,-0.0870,-0.0209
2983,-0.0868,-0.0396
2984,-0.0866,-0.0583
2985,-0.0863,-0.0767
2986,-0.0861,-0.0949
2987,-0.0858,-0.1127
2988,-0.0856,-0.1302
2989,-0.0853,-0.1471
2990,-0.0851,-0.1636
2991,-0.0849,-0.1794
2992,-0.0846,-0.1946
2993,-0.0844,-0.2090
2994,-0.0841,-0.2227
2995,-0.0839,-0.2355
2996,-0.0836,-0.2474
2997,-0.0834,-0.2583
2998,-0.0831,-0.2683
2999,-0.0829,-0.2772
3000,-0.0827,-0.2850
3001,-0.0824,-0.2917
3002,-0.0822,-0.2973
3003,-0.0819,-0.3017
3004,-0.0817,-0.3049
3005,-0.0814,-0.3069
3006,-0.0812,-0.3077
3007,-0.0809,-0.3072
3008,-0.0807,-0.3055
3009,-0.0805,-0.3026
3010,-0.0802,-0.2984
3011,-0.0800,-0.2930
3012,-0.0797,-0.2864
3013,-0.0795,-0.2786
3014,-0.0792,-0.2697
3015,-0.0790,-0.2597
3016,-0.0787,-0.2485
3017,-0.0785,-0.2364
3018,-0.0783,-0.2232
3019,-0.0780,-0.2091
3020,-0.0778,-0.1941
3021,-0.0775,-0.1782
3022,-0.0773,-0.1616
3023,-0.0770,-0.1443
3024,-0.0768,-0.1263
3025,-0.0765,-0.1078
3026,-0.0763,-0.0888
3027,-0.0761,-0.0693
3028,-0.0758,-0.0496
3029,-0.0756,-0.0295
3030,-0.0753,-0.0093
3031,-0.0751,0.0110
3032,-0.0748,0.0313
3033,-0.0746,0.0515
3034,-0.0744,0.0715
3035,-0.0741,0.0913
3036,-0.0739,0.1107
3037,-0.0736,0.1298
3038,-0.0734,0.1483
3039,-0.0731,0.1662
3040,-0.0729,0.1835
3041,-0.0726,0.2000
3042,-0.0724,0.2157
3043,-0.0722,0.2305
3044,-0.0719,0.2443
3045,-0.0717,0.2571
3046,-0.0714,0.2689
3047,-0.0712,0.2794
3048,-0.0709,0.2888
3049,-0.0707,0.2970
3050,-0.0704,0.3039
3051,-0.0702,0.3095
3052,-0.0700,0.3137
3053,-0.0697,0.3165
3054,-0.0695,0.3180
3055,-0.0692,0.3180
3056,-0.0690,0.3166
3057,-0.0687,0.3139
3058,-0.0685,0.3097
3059,-0.0682,0.3041
3060,-0.0680,0.2972
3061,-0.0678,0.2889
3062,-0.0675,0.2792
3063,-0.0673,0.2683
3064,-0.0670,0.2562
3065,-0.0668,0.2428
3066,-0.0665,0.2283
3067,-0.0663,0.2128
3068,-0.0661,0.1962
3069,-0.0658,0.1787
3070,-0.0656,0.1603
3071,-0.0653,0.1411
3072,-0.0651,0.1212
3073,-0.0648,0.1007
3074,-0.0646,0.0797
3075,-0.0643,0.0583
3076,-0.0641,0.0365
3077,-0.0639,0.0145
3078,-0.0636,-0.0077
3079,-0.0634,-0.0298
3080,-0.0631,-0.0519
3081,-0.0629,-0.0738
3082,-0.0626,-0.0955
3083,-0.0624,-0.1167
3084,-0.0621,-0.1374
3085,-0.0619,-0.1576
3086,-0.0617,-0.1771
3087,-0.0614,-0.1957
3088,-0.0612,-0.2135
3089,-0.0609,-0.2304
3090,-0.0607,-0.2461
3091,-0.0604,-0.2607
3092,-0.0602,-0.2742
3093,-0.0599,-0.2863
3094,-0.0597,-0.2970
3095,-0.0595,-0.3064
3096,-0.0592,-0.3143
3097,-0.0590,-0.3206
3098,-0.0587,-0.3255
3099,-0.0585,-0.3287
3100,-0.0582,-0.3303
3101,-0.0580,-0.3303
3102,-0.0578,-0.3286
3103,-0.0575,-0.3253
3104,-0.0573,-0.3204
3105,-0.0570,-0.3138
3106,-0.0568,-0.3057
3107,-0.0565,-0.2960
3108,-0.0563,-0.2847
3109,-0.0560,-0.2720
3110,-0.0558,-0.2579
3111,-0.0556,-0.2424
3112,-0.0553,-0.2256
3113,-0.0551,-0.2076
3114,-0.0548,-0.1885
3115,-0.0546,-0.1683
3116,-0.0543,-0.1473
3117,-0.0541,-0.1253
3118,-0.0538,-0.1027
3119,-0.0536,-0.0794
3120,-0.0534,-0.0557
3121,-0.0531,-0.0315
3122,-0.0529,-0.0072
3123,-0.0526,0.0173
3124,-0.0524,0.0418
3125,-0.0521,0.0662
3126,-0.0519,0.0903
3127,-0.0516,0.1140
3128,-0.0514,0.1372
3129,-0.0512,0.1597
3130,-0.0509,0.1814
3131,-0.0507,0.2023
3132,-0.0504,0.2221
3133,-0.0502,0.2408
3134,-0.0499,0.2583
3135,-0.0497,0.2744
3136,-0.0494,0.2890
3137,-0.0492,0.3022
3138,-0.0490,0.3137
3139,-0.0487,0.3235
3140,-0.0485,0.3316
3141,-0.0482,0.3378
3142,-0.0480,0.3422
3143,-0.0477,0.3447
3144,-0.0475,0.3453
3145,-0.0473,0.3439
3146,-0.0470,0.3405
3147,-0.0468,0.3353
3148,-0.0465,0.3280
3149,-0.0463,0.3189
3150,-0.0460,0.3079
3151,-0.0458,0.2951
3152,-0.0455,0.2806
3153,-0.0453,0.2643
3154,-0.0451,0.2465
3155,-0.0448,0.2271
3156,-0.0446,0.2063
3157,-0.0443,0.1843
3158,-0.0441,0.1610
3159,-0.0438,0.1367
3160,-0.0436,0.1115
3161,-0.0433,0.0855
3162,-0.0431,0.0588
3163,-0.0429,0.0318
3164,-0.0426,0.0044
3165,-0.0424,-0.0232
3166,-0.0421,-0.0507
3167,-0.0419,-0.0781
3168,-0.0416,-0.1051
3169,-0.0414,-0.1315
3170,-0.0411,-0.1573
3171,-0.0409,-0.1822
3172,-0.0407,-0.2061
3173,-0.0404,-0.2288
3174,-0.0402,-0.2502
3175,-0.0399,-0.2702
3176,-0.0397,-0.2885
3177,-0.0394,-0.3051
3178,-0.0392,-0.3198
3179,-0.0390,-0.3325
3180,-0.0387,-0.3432
3181,-0.0385,-0.3517
3182,-0.0382,-0.3579
3183,-0.0380,-0.3619
3184,-0.0377,-0.3636
3185,-0.0375,-0.3628
3186,-0.0372,-0.3597
3187,-0.0370,-0.3542
3188,-0.0368,-0.3463
3189,-0.0365,-0.3360
3190,-0.0363,-0.3235
3191,-0.0360,-0.3087
3192,-0.0358,-0.2917
3193,-0.0355,-0.2727
3194,-0.0353,-0.2517
3195,-0.0350,-0.2288
3196,-0.0348,-0.2043
3197,-0.0346,-0.1782
3198,-0.0343,-0.1508
3199,-0.0341,-0.1221
3200,-0.0338,-0.0925
3201,-0.0336,-0.0620
3202,-0.0333,-0.0309
3203,-0.0331,0.0007
3204,-0.0328,0.0323
3205,-0.0326,0.0640
3206,-0.0324,0.0953
3207,-0.0321,0.1262
3208,-0.0319,0.1563
3209,-0.0316,0.1855
3210,-0.0314,0.2134
3211,-0.0311,0.2400
3212,-0.0309,0.2649
3213,-0.0307,0.2880
3214,-0.0304,0.3091
3215,-0.0302,0.3280
3216,-0.0299,0.3445
3217,-0.0297,0.3585
3218,-0.0294,0.3698
3219,-0.0292,0.3783
3220,-0.0289,0.3840
3221,-0.0287,0.3867
3222,-0.0285,0.3864
3223,-0.0282,0.3830
3224,-0.0280,0.3765
3225,-0.0277,0.3670
3226,-0.0275,0.3545
3227,-0.0272,0.3390
3228,-0.0270,0.3206
3229,-0.0267,0.2995
3230,-0.0265,0.2758
3231,-0.0263,0.2496
3232,-0.0260,0.2211
3233,-0.0258,0.1906
3234,-0.0255,0.1582
3235,-0.0253,0.1242
3236,-0.0250,0.0889
3237,-0.0248,0.0526
3238,-0.0245,0.0155
3239,-0.0243,-0.0220
3240,-0.0241,-0.0596
3241,-0.0238,-0.0970
3242,-0.0236,-0.1338
3243,-0.0233,-0.1698
3244,-0.0231,-0.2045
3245,-0.0228,-0.2376
3246,-0.0226,-0.2688
3247,-0.0224,-0.2978
3248,-0.0221,-0.3243
3249,-0.0219,-0.3480
3250,-0.0216,-0.3686
3251,-0.0214,-0.3859
3252,-0.0211,-0.3996
3253,-0.0209,-0.4096
3254,-0.0206,-0.4157
3255,-0.0204,-0.4178
3256,-0.0202,-0.4157
3257,-0.0199,-0.4095
3258,-0.0197,-0.3991
3259,-0.0194,-0.3845
3260,-0.0192,-0.3659
3261,-0.0189,-0.3432
3262,-0.0187,-0.3168
3263,-0.0184,-0.2868
3264,-0.0182,-0.2534
3265,-0.0180,-0.2169
3266,-0.0177,-0.1777
3267,-0.0175,-0.1361
3268,-0.0172,-0.0926
3269,-0.0170,-0.0476
3270,-0.0167,-0.0015
3271,-0.0165,0.0452
3272,-0.0162,0.0918
3273,-0.0160,0.1380
3274,-0.0158,0.1831
3275,-0.0155,0.2265
3276,-0.0153,0.2678
3277,-0.0150,0.3064
3278,-0.0148,0.3417
3279,-0.0145,0.3733
3280,-0.0143,0.4006
3281,-0.0140,0.4232
3282,-0.0138,0.4407
3283,-0.0136,0.4528
3284,-0.0133,0.4590
3285,-0.0131,0.4593
3286,-0.0128,0.4534
3287,-0.0126,0.4413
3288,-0.0123,0.4229
3289,-0.0121,0.3983
3290,-0.0119,0.3678
3291,-0.0116,0.3315
3292,-0.0114,0.2898
3293,-0.0111,0.2431
3294,-0.0109,0.1921
3295,-0.0106,0.1374
3296,-0.0104,0.0796
3297,-0.0101,0.0196
3298,-0.0099,-0.0418
3299,-0.0097,-0.1036
3300,-0.0094,-0.1647
3301,-0.0092,-0.2242
3302,-0.0089,-0.2810
3303,-0.0087,-0.3341
3304,-0.0084,-0.3822
3305,-0.0082,-0.4245
3306,-0.0079,-0.4598
3307,-0.0077,-0.4874
3308,-0.0075,-0.5063
3309,-0.0072,-0.5158
3310,-0.0070,-0.5154
3311,-0.0067,-0.5046
3312,-0.0065,-0.4833
3313,-0.0062,-0.4513
3314,-0.0060,-0.4091
3315,-0.0057,-0.3569
3316,-0.0055,-0.2955
3317,-0.0053,-0.2260
3318,-0.0050,-0.1495
3319,-0.0048,-0.0676
3320,-0.0045,0.0179
3321,-0.0043,0.1051
3322,-0.0040,0.1917
3323,-0.0038,0.2754
3324,-0.0036,0.3537
3325,-0.0033,0.4240
3326,-0.0031,0.4838
3327,-0.0028,0.5308
3328,-0.0026,0.5627
3329,-0.0023,0.5776
3330,-0.0021,0.5741
3331,-0.0018,0.5511
3332,-0.0016,0.5084
3333,-0.0014,0.4463
3334,-0.0011,0.3660
3335,-0.0009,0.2696
3336,-0.0006,0.1599
3337,-0.0004,0.0410
3338,-0.0001,-0.0824
3339,0.0001,-0.2047
3340,0.0004,-0.3196
3341,0.0006,-0.4207
3342,0.0008,-0.5016
3343,0.0011,-0.5566
3344,0.0013,-0.5810
3345,0.0016,-0.5722
3346,0.0018,-0.5294
3347,0.0021,-0.4547
3348,0.0023,-0.3527
3349,0.0026,-0.2301
3350,0.0028,-0.0958
3351,0.0030,0.0403
3352,0.0033,0.1680
3353,0.0035,0.2779
3354,0.0038,0.3619
3355,0.0040,0.4145
3356,0.0043,0.4328
3357,0.0045,0.4170
3358,0.0047,0.3701
3359,0.0050,0.2979
3360,0.0052,0.2077
3361,0.0055,0.1082
3362,0.0057,0.0085
3363,0.0060,-0.0832
3364,0.0062,-0.1597
3365,0.0065,-0.2158
3366,0.0067,-0.2484
3367,0.0069,-0.2568
3368,0.0072,-0.2423
3369,0.0074,-0.2085
3370,0.0077,-0.1601
3371,0.0079,-0.1027
3372,0.0082,-0.0424
3373,0.0084,0.0153
3374,0.0087,0.0655
3375,0.0089,0.1044
3376,0.0091,0.1298
3377,0.0094,0.1407
3378,0.0096,0.1377
3379,0.0099,0.1226
3380,0.0101,0.0980
3381,0.0104,0.0672
3382,0.0106,0.0336
3383,0.0109,0.0007
3384,0.0111,-0.0286
3385,0.0113,-0.0520
3386,0.0116,-0.0680
3387,0.0118,-0.0759
3388,0.0121,-0.0759
3389,0.0123,-0.0689
3390,0.0126,-0.0562
3391,0.0128,-0.0398
3392,0.0131,-0.0214
3393,0.0133,-0.0031
3394,0.0135,0.0134
3395,0.0138,0.0268
3396,0.0140,0.0363
3397,0.0143,0.0412
3398,0.0145,0.0418
3399,0.0148,0.0384
3400,0.0150,0.0318
3401,0.0152,0.0229
3402,0.0155,0.0129
3403,0.0157,0.0028
3404,0.0160,-0.0065
3405,0.0162,-0.0141
3406,0.0165,-0.0195
3407,0.0167,-0.0226
3408,0.0170,-0.0231
3409,0.0172,-0.0215
3410,0.0174,-0.0180
3411,0.0177,-0.0132
3412,0.0179,-0.0077
3413,0.0182,-0.0021
3414,0.0184,0.0031
3415,0.0187,0.0074
3416,0.0189,0.0106
3417,0.0192,0.0124
3418,0.0194,0.0128
3419,0.0196,0.0120
3420,0.0199,0.0101
3421,0.0201,0.0075
3422,0.0204,0.0045
3423,0.0206,0.0014
3424,0.0209,-0.0015
3425,0.0211,-0.0039
3426,0.0214,-0.0057
3427,0.0216,-0.0068
3428,0.0218,-0.0071
3429,0.0221,-0.0067
3430,0.0223,-0.0057
3431,0.0226,-0.0043
3432,0.0228,-0.0027
3433,0.0231,-0.0009
3434,0.0233,0.0007
3435,0.0235,0.0020
3436,0.0238,0.0031
3437,0.0240,0.0037
3438,0.0243,0.0039
3439,0.0245,0.0037
3440,0.0248,0.0032
3441,0.0250,0.0025
3442,0.0253,0.0016
3443,0.0255,0.0006
3444,0.0257,-0.0003
3445,0.0260,-0.0011
3446,0.0262,-0.0017
3447,0.0265,-0.0020
3448,0.0267,-0.0022
3449,0.0270,-0.0021
3450,0.0272,-0.0018
3451,0.0275,-0.0014
3452,0.0277,-0.0009
3453,0.0279,-0.0004
3454,0.0282,0.0001
3455,0.0284,0.0006
3456,0.0287,0.0009
3457,0.0289,0.0011
3458,0.0292,0.0012
3459,0.0294,0.0012
3460,0.0297,0.0010
3461,0.0299,0.0008
3462,0.0301,0.0005
3463,0.0304,0.0002
3464,0.0306,-0.0000
3465,0.0309,-0.0003
3466,0.0311,-0.0005
3467,0.0314,-0.0006
3468,0.0316,-0.0007
3469,0.0318,-0.0006
3470,0.0321,-0.0006
3471,0.0323,-0.0005
3472,0.0326,-0.0003
3473,0.0328,-0.0001
3474,0.0331,0.0000
3475,0.0333,0.0001
3476,0.0336,0.0003
3477,0.0338,0.0003
3478,0.0340,0.0004
3479,0.0343,0.0004
3480,0.0345,0.0003
3481,0.0348,0.0003
3482,0.0350,0.0002
3483,0.0353,0.0001
3484,0.0355,0.0000
3485,0.0358,-0.0001
3486,0.0360,-0.0001
3487,0.0362,-0.0002
3488,0.0365,-0.0002
3489,0.0367,-0.0002
3490,0.0370,-0.0002
3491,0.0372,-0.0001
3492,0.0375,-0.0001
3493,0.0377,-0.0001
3494,0.0380,-0.0000
3495,0.0382,0.0000
3496,0.0384,0.0001
3497,0.0387,0.0001
3498,0.0389,0.0001
3499,0.0392,0.0001
3500,0.0394,0.0001
3501,0.0397,0.0001
3502,0.0399,0.0001
3503,0.0401,0.0000
3504,0.0404,0.0000
3505,0.0406,-0.0000
3506,0.0409,-0.0000
3507,0.0411,-0.0001
3508,0.0414,-0.0001
3509,0.0416,0.0000
3510,0.0419,0.0000
3511,0.0421,0.0000
3512,0.0423,0.0000
3513,0.0426,-0.0000
3514,0.0428,0.0000
3515,0.0431,-0.0000
3516,0.0433,0.0000
3517,0.0436,0.0000
3518,0.0438,0.0000
3519,0.0441,0.0000
3520,0.0443,0.0000
3521,0.0445,0.0000
3522,0.0448,0.0000
3523,0.0450,0.0000
3524,0.0453,0.0000
3525,0.0455,0.0000
3526,0.0458,0.0000
3527,0.0460,0.0000
3528,0.0463,0.0000
3529,0.0465,0.0000
3530,0.0467,0.0000
3531,0.0470,0.0000
3532,0.0472,0.0000
3533,0.0475,0.0000
3534,0.0477,0.0000
3535,0.0480,0.0000
3536,0.0482,0.0000
3537,0.0485,0.0000
3538,0.0487,0.0000
3539,0.0489,0.0000
3540,0.0492,0.0000
3541,0.0494,0.0000
3542,0.0497,0.0000
3543,0.0499,0.0000
3544,0.0502,0.0000
3545,0.0504,0.0000
3546,0.0506,0.0000
3547,0.0509,0.0000
3548,0.0511,0.0000
3549,0.0514,0.0000
3550,0.0516,0.0000
3551,0.0519,0.0000
3552,0.0521,0.0000
3553,0.0524,0.0000
3554,0.0526,0.0000
3555,0.0528,0.0000
3556,0.0531,0.0000
3557,0.0533,0.0000
3558,0.0536,0.0000
3559,0.0538,0.0000
3560,0.0541,0.0000
3561,0.0543,0.0000
3562,0.0546,0.0000
3563,0.0548,0.0000
3564,0.0550,0.0000
3565,0.0553,0.0000
3566,0.0555,0.0000
3567,0.0558,0.0000
3568,0.0560,0.0000
3569,0.0563,0.0000
3570,0.0565,0.0000
3571,0.0568,0.0000
3572,0.0570,0.0000
3573,0.0572,0.0000
3574,0.0575,0.0000
3575,0.0577,0.0000
3576,0.0580,0.0000
3577,0.0582,0.0000
3578,0.0585,0.0000
3579,0.0587,0.0000
3580,0.0589,0.0000
3581,0.0592,0.0000
3582,0.0594,0.0000
3583,0.0597,0.0000
3584,0.0599,0.0000
3585,0.0602,0.0000
3586,0.0604,0.0000
3587,0.0607,0.0000
3588,0.0609,0.0000
3589,0.0611,0.0000
3590,0.0614,0.0000
3591,0.0616,0.0000
3592,0.0619,0.0000
3593,0.0621,0.0000
3594,0.0624,0.0000
3595,0.0626,0.0000
3596,0.0629,0.0000
3597,0.0631,0.0000
3598,0.0633,0.0000
3599,0.0636,0.0000
3600,0.0638,0.0000
3601,0.0641,0.0000
3602,0.0643,0.0000
3603,0.0646,0.0000
3604,0.0648,0.0000
3605,0.0651,0.0000
3606,0.0653,0.0000
3607,0.0655,0.0000
3608,0.0658,0.0000
3609,0.0660,0.0000
3610,0.0663,0.0000
3611,0.0665,0.0000
3612,0.0668,0.0000
3613,0.0670,0.0000
3614,0.0672,0.0000
3615,0.0675,0.0000
3616,0.0677,0.0000
3617,0.0680,0.0000
3618,0.0682,0.0000
3619,0.0685,0.0000
3620,0.0687,0.0000
3621,0.0690,0.0000
3622,0.0692,0.0000
3623,0.0694,0.0000
3624,0.0697,0.0000
3625,0.0699,0.0000
3626,0.0702,0.0000
3627,0.0704,0.0000
3628,0.0707,0.0000
3629,0.0709,0.0000
3630,0.0712,0.0000
3631,0.0714,0.0000
3632,0.0716,0.0000
3633,0.0719,0.0000
3634,0.0721,0.0000
3635,0.0724,0.0000
3636,0.0726,0.0000
3637,0.0729,0.0000
3638,0.0731,0.0000
3639,0.0734,0.0000
3640,0.0736,0.0000
3641,0.0738,0.0000
3642,0.0741,0.0000
3643,0.0743,0.0000
3644,0.0746,0.0000
3645,0.0748,0.0000
3646,0.0751,0.0000
3647,0.0753,0.0000
3648,0.0756,0.0000
3649,0.0758,0.0000
3650,0.0760,0.0000
3651,0.0763,0.0000
3652,0.0765,0.0000
3653,0.0768,0.0000
3654,0.0770,0.0000
3655,0.0773,0.0000
3656,0.0775,0.0000
3657,0.0777,0.0000
3658,0.0780,0.0000
3659,0.0782,0.0000
3660,0.0785,0.0000
3661,0.0787,0.0000
3662,0.0790,0.0000
3663,0.0792,0.0000
3664,0.0795,0.0000
3665,0.0797,0.0000
3666,0.0799,0.0000
3667,0.0802,0.0000
3668,0.0804,0.0000
3669,0.0807,0.0000
3670,0.0809,0.0000
3671,0.0812,0.0000
3672,0.0814,0.0000
3673,0.0817,0.0000
3674,0.0819,0.0000
3675,0.0821,0.0000
3676,0.0824,0.0000
3677,0.0826,0.0000
3678,0.0829,0.0000
3679,0.0831,0.0000
3680,0.0834,0.0000
3681,0.0836,0.0000
3682,0.0839,0.0000
3683,0.0841,0.0000
3684,0.0843,0.0000
3685,0.0846,0.0000
3686,0.0848,0.0000
3687,0.0851,0.0000
3688,0.0853,0.0000
3689,0.0856,0.0000
3690,0.0858,0.0000
3691,0.0860,0.0000
3692,0.0863,0.0000
3693,0.0865,0.0000
3694,0.0868,0.0000
3695,0.0870,0.0000
3696,0.0873,0.0000
3697,0.0875,0.0000
3698,0.0878,0.0000
3699,0.0880,0.0000
3700,0.0882,0.0000
3701,0.0885,0.0000
3702,0.0887,0.0000
3703,0.0890,0.0000
3704,0.0892,0.0000
3705,0.0895,0.0000
3706,0.0897,0.0000
3707,0.0900,0.0000
3708,0.0902,0.0000
3709,0.0904,0.0000
3710,0.0907,0.0000
3711,0.0909,0.0000
3712,0.0912,0.0000
3713,0.0914,0.0000
3714,0.0917,0.0000
3715,0.0919,0.0000
3716,0.0922,0.0000
3717,0.0924,0.0000
3718,0.0926,0.0000
3719,0.0929,0.0000
3720,0.0931,0.0000
3721,0.0934,0.0000
3722,0.0936,0.0000
3723,0.0939,0.0000
3724,0.0941,0.0000
3725,0.0943,0.0000
3726,0.0946,0.0000
3727,0.0948,0.0000
3728,0.0951,0.0000
3729,0.0953,0.0000
3730,0.0956,0.0000
3731,0.0958,0.0000
3732,0.0961,0.0000
3733,0.0963,0.0000
3734,0.0965,0.0000
3735,0.0968,0.0000
3736,0.0970,0.0000
3737,0.0973,0.0000
3738,0.0975,0.0000
3739,0.0978,0.0000
3740,0.0980,0.0000
3741,0.0983,0.0000
3742,0.0985,0.0000
3743,0.0987,0.0000
3744,0.0990,0.0000
3745,0.0992,0.0000
3746,0.0995,0.0000
3747,0.0997,0.0000
3748,0.1000,0.0000
3749,0.1002,0.0000
3750,0.1005,0.0000
3751,0.1007,0.0000
3752,0.1009,0.0000
3753,0.1012,0.0000
3754,0.1014,0.0000
3755,0.1017,0.0000
3756,0.1019,0.0000
3757,0.1022,0.0000
3758,0.1024,0.0000
3759,0.1026,0.0000
3760,0.1029,0.0000
3761,0.1031,0.0000
3762,0.1034,0.0000
3763,0.1036,0.0000
3764,0.1039,0.0000
3765,0.1041,0.0000
3766,0.1044,0.0000
3767,0.1046,0.0000
3768,0.1048,0.0000
3769,0.1051,0.0000
3770,0.1053,0.0000
3771,0.1056,0.0000
3772,0.1058,0.0000
3773,0.1061,0.0000
3774,0.1063,0.0000
3775,0.1066,0.0000
3776,0.1068,0.0000
3777,0.1070,0.0000
3778,0.1073,0.0000
3779,0.1075,0.0000
3780,0.1078,0.0000
3781,0.1080,0.0000
3782,0.1083,0.0000
3783,0.1085,0.0000
3784,0.1088,0.0000
3785,0.1090,0.0000
3786,0.1092,0.0000
3787,0.1095,0.0000
3788,0.1097,0.0000
3789,0.1100,0.0000
3790,0.1102,0.0000
3791,0.1105,0.0000
3792,0.1107,0.0000
3793,0.1110,0.0000
3794,0.1112,0.0000
3795,0.1114,0.0000
3796,0.1117,0.0000
3797,0.1119,0.0000
3798,0.1122,0.0000
3799,0.1124,0.0000
3800,0.1127,0.0000
3801,0.1129,0.0000
3802,0.1131,0.0000
3803,0.1134,0.0000
3804,0.1136,0.0000
3805,0.1139,0.0000
3806,0.1141,0.0000
3807,0.1144,0.0000
3808,0.1146,0.0000
3809,0.1149,0.0000
3810,0.1151,0.0000
3811,0.1153,0.0000
3812,0.1156,0.0000
3813,0.1158,0.0000
3814,0.1161,0.0000
3815,0.1163,0.0000
3816,0.1166,0.0000
3817,0.1168,0.0000
3818,0.1171,0.0000
3819,0.1173,0.0000
3820,0.1175,0.0000
3821,0.1178,0.0000
3822,0.1180,0.0000
3823,0.1183,0.0000
3824,0.1185,0.0000
3825,0.1188,0.0000
3826,0.1190,0.0000
3827,0.1193,0.0000
3828,0.1195,0.0000
3829,0.1197,0.0000
3830,0.1200,0.0000
3831,0.1202,0.0000
3832,0.1205,0.0000
3833,0.1207,0.0000
3834,0.1210,0.0000
3835,0.1212,0.0000
3836,0.1214,0.0000
3837,0.1217,0.0000
3838,0.1219,0.0000
3839,0.1222,0.0000
3840,0.1224,0.0000
3841,0.1227,0.0000
3842,0.1229,0.0000
3843,0.1232,0.0000
3844,0.1234,0.0000
3845,0.1236,0.0000
3846,0.1239,0.0000
3847,0.1241,0.0000
3848,0.1244,0.0000
3849,0.1246,0.0000
3850,0.1249,0.0000
3851,0.1251,0.0000
3852,0.1254,0.0000
3853,0.1256,0.0000
3854,0.1258,0.0000
3855,0.1261,0.0000
3856,0.1263,0.0000
3857,0.1266,0.0000
3858,0.1268,0.0000
3859,0.1271,0.0000
3860,0.1273,0.0000
3861,0.1276,0.0000
3862,0.1278,0.0000
3863,0.1280,0.0000
3864,0.1283,0.0000
3865,0.1285,0.0000
3866,0.1288,0.0000
3867,0.1290,0.0000
3868,0.1293,0.0000
3869,0.1295,0.0000
3870,0.1297,0.0000
3871,0.1300,0.0000
3872,0.1302,0.0000
3873,0.1305,0.0000
3874,0.1307,0.0000
3875,0.1310,0.0000
3876,0.1312,0.0000
3877,0.1315,0.0000
3878,0.1317,0.0000
3879,0.1319,0.0000
3880,0.1322,0.0000
3881,0.1324,0.0000
3882,0.1327,0.0000
3883,0.1329,0.0000
3884,0.1332,0.0000
3885,0.1334,0.0000
3886,0.1337,0.0000
3887,0.1339,0.0000
3888,0.1341,0.0000
3889,0.1344,0.0000
3890,0.1346,0.0000
3891,0.1349,0.0000
3892,0.1351,0.0000
3893,0.1354,0.0000
3894,0.1356,0.0000
3895,0.1359,0.0000
3896,0.1361,0.0000
3897,0.1363,0.0000
3898,0.1366,0.0000
3899,0.1368,0.0000
3900,0.1371,0.0000
3901,0.1373,0.0000
3902,0.1376,0.0000
3903,0.1378,0.0000
3904,0.1381,0.0000
3905,0.1383,0.0000
3906,0.1385,0.0000
3907,0.1388,0.0000
3908,0.1390,0.0000
3909,0.1393,0.0000
3910,0.1395,0.0000
3911,0.1398,0.0000
3912,0.1400,0.0000
3913,0.1402,0.0000
3914,0.1405,0.0000
3915,0.1407,0.0000
3916,0.1410,0.0000
3917,0.1412,0.0000
3918,0.1415,0.0000
3919,0.1417,0.0000
3920,0.1420,0.0000
3921,0.1422,0.0000
3922,0.1424,0.0000
3923,0.1427,0.0000
3924,0.1429,0.0000
3925,0.1432,0.0000
3926,0.1434,0.0000
3927,0.1437,0.0000
3928,0.1439,0.0000
3929,0.1442,0.0000
3930,0.1444,0.0000
3931,0.1446,0.0000
3932,0.1449,0.0000
3933,0.1451,0.0000
3934,0.1454,0.0000
3935,0.1456,0.0000
3936,0.1459,0.0000
3937,0.1461,0.0000
3938,0.1464,0.0000
3939,0.1466,0.0000
3940,0.1468,0.0000
3941,0.1471,0.0000
3942,0.1473,0.0000
3943,0.1476,0.0000
3944,0.1478,0.0000
3945,0.1481,0.0000
3946,0.1483,0.0000
3947,0.1485,0.0000
3948,0.1488,0.0000
3949,0.1490,0.0000
3950,0.1493,0.0000
3951,0.1495,0.0000
3952,0.1498,0.0000
3953,0.1500,0.0000
3954,0.1503,0.0000
3955,0.1505,0.0000
3956,0.1507,0.0000
3957,0.1510,0.0000
3958,0.1512,0.0000
3959,0.1515,0.0000
3960,0.1517,0.0000
3961,0.1520,0.0000
3962,0.1522,0.0000
3963,0.1525,0.0000
3964,0.1527,0.0000
3965,0.1529,0.0000
3966,0.1532,0.0000
3967,0.1534,0.0000
3968,0.1537,0.0000
3969,0.1539,0.0000
3970,0.1542,0.0000
3971,0.1544,0.0000
3972,0.1547,0.0000
3973,0.1549,0.0000
3974,0.1551,0.0000
3975,0.1554,0.0000
3976,0.1556,0.0000
3977,0.1559,0.0000
3978,0.1561,0.0000
3979,0.1564,0.0000
3980,0.1566,0.0000
3981,0.1568,0.0000
3982,0.1571,0.0000
3983,0.1573,0.0000
3984,0.1576,0.0000
3985,0.1578,0.0000
3986,0.1581,0.0000
3987,0.1583,0.0000
3988,0.1586,0.0000
3989,0.1588,0.0000
3990,0.1590,0.0000
3991,0.1593,0.0000
3992,0.1595,0.0000
3993,0.1598,0.0000
3994,0.1600,0.0000
3995,0.1603,0.0000
3996,0.1605,0.0000
3997,0.1608,0.0000
3998,0.1610,0.0000
3999,0.1612,0.0000
4000,0.1615,0.0000
4001,0.1617,0.0000
4002,0.1620,0.0000
4003,0.1622,0.0000
4004,0.1625,0.0000
4005,0.1627,0.0000
4006,0.1630,0.0000
4007,0.1632,0.0000
4008,0.1634,0.0000
4009,0.1637,0.0000
4010,0.1639,0.0000
4011,0.1642,0.0000
4012,0.1644,0.0000
4013,0.1647,0.0000
4014,0.1649,0.0000
4015,0.1651,0.0000
4016,0.1654,0.0000
4017,0.1656,0.0000
4018,0.1659,0.0000
4019,0.1661,0.0000
4020,0.1664,0.0000
4021,0.1666,0.0000
4022,0.1669,0.0000
4023,0.1671,0.0000
